Filename	LLM_EP0901_0%01_Oscillatory temperature sweep
Instrument name	5333-0626
Operator	
rundate	06/05/2025
Sample name	LLM_EP0901_0%01_Oscillatory temperature sweep
Geometry name	8.0mm parallel plate, UPP Stainless steel  - 119113 new 30 11 22
Procedure name	Sample
	Temperature ramp
	Temperature ramp
	Temperature ramp
	Temperature ramp
	Flow sweep
	Flow sweep
	Flow sweep
	Flow sweep
	Flow sweep
	Flow sweep
	Axial
	Sample
proceduresegments	Temperature ramp#Temperature ramp#Temperature ramp#Temperature ramp#Flow sweep#Flow sweep#Flow sweep#Flow sweep#Flow sweep#Flow sweep#Axial
[step]
Temperature ramp - 1
Storage modulus	Loss modulus	Tan(delta)	Angular frequency	Oscillation torque	Step time	Temperature	Raw phase	Oscillation displacement
MPa	MPa		rad/s	µN.m	s	°C	°	rad
-1.10707e-4	1.52926e-3	-13.8136	10.0001	0.251017	6.12356	109.73	167.624	8.74880e-5
-1.01197e-4	1.55599e-3	-15.3758	10.0001	0.250802	12.9032	109.36	167.398	8.74561e-5
-1.20072e-4	1.67292e-3	-13.9326	10.0001	0.251828	19.7923	109.20	166.519	8.72656e-5
-1.05208e-4	1.78143e-3	-16.9324	10.0001	0.252244	26.6969	108.89	165.651	8.72685e-5
-1.20492e-4	1.83492e-3	-15.2285	10.0001	0.253638	33.4609	108.67	165.270	8.74075e-5
-1.25505e-4	1.99029e-3	-15.8583	10.0001	0.254407	40.2562	108.46	164.094	8.71186e-5
-1.17246e-4	2.13560e-3	-18.2146	10.0001	0.255527	47.0515	108.22	162.978	8.71029e-5
-1.10065e-4	2.23648e-3	-20.3196	10.0001	0.256857	53.6437	107.94	162.208	8.72776e-5
-1.17593e-4	2.37480e-3	-20.1951	10.0001	0.258378	60.4858	107.78	161.201	8.71916e-5
-1.18716e-4	2.53453e-3	-21.3496	10.0001	0.259898	67.3858	107.57	160.037	8.70662e-5
-1.29374e-4	2.65230e-3	-20.5010	10.0001	0.262273	74.1846	107.29	159.216	8.72619e-5
-1.12548e-4	2.84525e-3	-25.2803	10.0001	0.263554	81.0812	107.11	157.797	8.70469e-5
-1.09312e-4	3.05945e-3	-27.9883	10.0001	0.266049	87.7530	106.89	156.294	8.69405e-5
-1.40331e-4	3.20417e-3	-22.8330	10.0001	0.269939	94.7200	106.61	155.403	8.72103e-5
-1.22304e-4	3.34963e-3	-27.3878	10.0001	0.271093	101.460	106.42	154.367	8.70681e-5
-1.00851e-4	3.52169e-3	-34.9199	10.0001	0.273063	108.439	106.22	153.159	8.70618e-5
-1.51435e-4	3.73848e-3	-24.6870	10.0001	0.278268	114.595	105.97	151.929	8.71042e-5
-1.23417e-4	3.90947e-3	-31.6770	10.0001	0.279908	121.564	105.70	150.754	8.69884e-5
-1.10409e-4	4.14307e-3	-37.5249	10.0001	0.283271	128.336	105.51	149.270	8.68894e-5
-1.27687e-4	4.33020e-3	-33.9127	10.0001	0.287797	135.175	105.31	148.209	8.70746e-5
-1.48257e-4	4.58682e-3	-30.9382	10.0001	0.292726	142.065	105.10	146.790	8.69241e-5
-1.44690e-4	4.81144e-3	-33.2533	10.0001	0.297042	148.251	104.82	145.512	8.69396e-5
-1.16364e-4	5.10044e-3	-43.8318	10.0001	0.301351	155.141	104.62	143.825	8.67303e-5
-1.32644e-4	5.38674e-3	-40.6105	10.0001	0.308141	162.017	104.40	142.386	8.68249e-5
-1.30095e-4	5.71673e-3	-43.9428	10.0001	0.314685	168.893	104.18	140.716	8.66715e-5
-1.35933e-4	5.96015e-3	-43.8464	10.0001	0.321216	175.664	103.95	139.566	8.69279e-5
-1.42839e-4	6.28785e-3	-44.0206	10.0001	0.328123	182.530	103.75	138.074	8.67107e-5
-1.36419e-4	6.64414e-3	-48.7038	10.0001	0.336027	189.252	103.52	136.473	8.66168e-5
-1.35388e-4	7.03738e-3	-51.9795	10.0001	0.345159	196.151	103.25	134.823	8.65133e-5
-1.07308e-4	7.40208e-3	-68.9796	10.0001	0.353789	203.005	103.03	133.263	8.65617e-5
-1.76021e-4	7.84929e-3	-44.5928	10.0001	0.366454	209.801	102.79	131.868	8.64622e-5
-1.37270e-4	8.33209e-3	-60.6985	10.0001	0.377343	216.642	102.59	130.018	8.62536e-5
-1.31471e-4	8.88472e-3	-67.5792	10.0001	0.391545	223.501	102.37	128.194	8.61334e-5
-1.34593e-4	9.25892e-3	-68.7921	10.0001	0.404131	229.638	102.12	127.062	8.66125e-5
-1.41705e-4	9.73757e-3	-68.7172	10.0001	0.416571	236.595	101.93	125.713	8.63840e-5
-1.33265e-4	0.0103574	-77.7207	10.0001	0.432233	243.464	101.67	124.021	8.60145e-5
-1.09239e-4	0.0109454	-100.197	10.0001	0.449174	250.220	101.44	122.482	8.60946e-5
-1.06231e-4	0.0115009	-108.263	10.0001	0.466057	257.123	101.26	121.199	8.62017e-5
-1.06634e-4	0.0121279	-113.734	10.0001	0.483789	263.987	100.97	119.872	8.60313e-5
-1.09986e-4	0.0130016	-118.212	10.0001	0.507302	270.793	100.75	118.192	8.55291e-5
-1.15224e-4	0.0137522	-119.352	10.0001	0.532164	277.622	100.58	116.890	8.58291e-5
-9.82096e-5	0.0145450	-148.101	10.0001	0.555708	284.443	100.29	115.563	8.57184e-5
-1.26040e-4	0.0154148	-122.301	10.0001	0.583194	291.308	100.08	114.377	8.57031e-5
-9.46297e-5	0.0162961	-172.209	10.0001	0.610508	298.074	99.84	113.107	8.56932e-5
-9.94613e-5	0.0171906	-172.837	10.0001	0.639786	304.941	99.62	112.037	8.57961e-5
-7.40666e-5	0.0183630	-247.925	10.0001	0.673689	311.829	99.40	110.683	8.53578e-5
-8.71270e-5	0.0197824	-227.052	10.0001	0.717570	318.610	99.20	109.345	8.51063e-5
-8.94743e-5	0.0210342	-235.086	10.0001	0.761927	325.311	98.91	108.280	8.55416e-5
-5.55581e-5	0.0224132	-403.419	10.0001	0.805943	332.033	98.75	107.144	8.54499e-5
-7.74163e-5	0.0239299	-309.107	10.0001	0.855640	338.881	98.54	106.164	8.54089e-5
-9.28123e-5	0.0252233	-271.766	10.0001	0.902699	345.733	98.24	105.408	8.58088e-5
-8.37181e-5	0.0265649	-317.313	10.0001	0.947195	352.532	98.08	104.645	8.57924e-5
-8.00613e-5	0.0281439	-351.529	10.0001	0.998137	359.324	97.83	103.849	8.56358e-5
-5.00806e-5	0.0297282	-593.607	10.0001	1.05191	365.463	97.65	103.082	8.57097e-5
-3.51270e-5	0.0315013	-896.784	10.0001	1.11054	372.165	97.38	102.342	8.56383e-5
-5.80209e-5	0.0335769	-578.704	10.0001	1.17775	378.976	97.16	101.639	8.54388e-5
-4.72158e-5	0.0356088	-754.172	10.0001	1.24832	385.802	96.94	100.974	8.55867e-5
1.42705e-5	0.0377066	2642.27	10.0001	1.31982	392.645	96.70	100.287	8.56472e-5
-5.01986e-5	0.0398875	-794.593	10.0001	1.39525	398.878	96.53	99.8253	8.57140e-5
-3.38881e-5	0.0423595	-1249.98	10.0001	1.47598	405.126	96.29	99.2406	8.55300e-5
-1.42599e-5	0.0450955	-3162.40	10.0001	1.56727	411.921	96.07	98.6642	8.54445e-5
-3.38520e-5	0.0479457	-1416.33	10.0001	1.66526	418.717	95.82	98.1796	8.55034e-5
3.84691e-5	0.0513037	1333.63	10.0001	1.77410	425.514	95.62	97.5703	8.52447e-5
-8.58116e-6	0.0546911	-6373.39	10.0001	1.89340	432.204	95.43	97.1551	8.54274e-5
8.69348e-5	0.0583447	671.131	10.0001	2.01551	438.954	95.17	96.6182	8.53344e-5
6.82122e-5	0.0623295	913.759	10.0001	2.15142	445.794	94.97	96.2156	8.53379e-5
8.02972e-5	0.0669650	833.965	10.0001	2.30396	452.725	94.68	95.7777	8.51298e-5
8.08579e-5	0.0714420	883.551	10.0001	2.46347	459.438	94.49	95.4170	8.53704e-5
8.84623e-5	0.0772894	873.699	10.0001	2.64799	466.224	94.26	95.0034	8.48790e-5
2.18408e-4	0.0822628	376.647	10.0001	2.83361	473.130	94.03	94.6118	8.53832e-5
2.19743e-4	0.0878355	399.719	10.0001	3.02223	479.892	93.81	94.3195	8.53308e-5
2.82564e-4	0.0936562	331.451	10.0001	3.22231	486.786	93.57	94.0132	8.53554e-5
3.03009e-4	0.0995788	328.633	10.0001	3.42982	493.612	93.37	93.7627	8.54670e-5
4.59482e-4	0.107036	232.949	10.0001	3.66777	500.423	93.10	93.4176	8.50680e-5
4.28908e-4	0.115047	268.232	10.0001	3.94242	507.330	92.91	93.1948	8.50918e-5
5.51035e-4	0.123564	224.239	10.0001	4.23247	514.025	92.69	92.9177	8.50717e-5
5.81357e-4	0.131134	225.566	10.0001	4.51348	520.849	92.46	92.7359	8.55010e-5
6.73032e-4	0.139679	207.536	10.0001	4.79868	527.449	92.22	92.5306	8.53535e-5
8.65160e-4	0.149039	172.268	10.0001	5.11468	534.349	92.03	92.2974	8.52758e-5
1.04359e-3	0.161378	154.638	10.0001	5.50516	541.167	91.74	92.0577	8.47795e-5
1.14388e-3	0.175431	153.365	10.0001	5.97215	547.943	91.51	91.8593	8.46137e-5
1.23454e-3	0.185279	150.079	10.0001	6.38217	554.193	91.32	91.7319	8.56263e-5
1.32103e-3	0.196516	148.760	10.0001	6.75546	560.896	91.12	91.6070	8.54605e-5
1.55768e-3	0.209180	134.289	10.0001	7.17563	567.679	90.93	91.4440	8.52808e-5
1.72073e-3	0.226180	131.444	10.0001	7.71208	574.519	90.67	91.2930	8.47744e-5
2.17940e-3	0.246328	113.025	10.0001	8.36564	581.270	90.41	91.0792	8.44421e-5
2.23906e-3	0.265060	118.380	10.0001	9.04743	588.125	90.22	90.9887	8.48741e-5
2.82064e-3	0.294401	104.374	10.0001	9.90847	594.945	89.90	90.7751	8.36983e-5
3.26539e-3	0.316341	96.8769	10.0001	10.8015	601.751	89.70	90.6393	8.49173e-5
3.56710e-3	0.331538	92.9434	10.0001	11.4418	608.624	89.52	90.5566	8.58174e-5
3.91730e-3	0.350701	89.5262	10.0001	12.0537	615.503	89.31	90.4676	8.54704e-5
4.45580e-3	0.373016	83.7147	10.0001	12.7895	622.279	89.08	90.3553	8.52663e-5
5.24649e-3	0.399210	76.0908	10.0001	13.6478	629.096	88.84	90.2167	8.50204e-5
5.57300e-3	0.429850	77.1308	10.0001	14.6523	635.960	88.59	90.1555	8.47671e-5
6.41993e-3	0.466520	72.6676	10.0001	15.8383	642.809	88.36	90.0367	8.44321e-5
7.68997e-3	0.500807	65.1247	10.0001	17.0902	649.679	88.20	89.8864	8.48634e-5
8.62043e-3	0.539837	62.6230	10.0001	18.3920	656.381	87.96	89.7931	8.47261e-5
8.97404e-3	0.577758	64.3810	10.0001	19.7434	663.328	87.67	89.7689	8.49827e-5
0.0105728	0.624873	59.1018	10.0001	21.2239	670.126	87.47	89.6364	8.44655e-5
0.0124727	0.683206	54.7759	10.0001	23.0948	677.009	87.23	89.5040	8.40666e-5
0.0136006	0.740558	54.4503	10.0001	25.1340	683.873	87.02	89.4511	8.43964e-5
0.0159781	0.797618	49.9193	10.0001	27.1262	690.579	86.76	89.3156	8.45776e-5
0.0177748	0.862874	48.5448	10.0001	29.2832	697.282	86.60	89.2434	8.43866e-5
0.0200373	0.937844	46.8050	10.0001	31.7330	704.175	86.32	89.1604	8.41409e-5
0.0227991	1.01485	44.5127	10.0001	34.4009	710.995	86.08	89.0628	8.43000e-5
0.0258710	1.08117	41.7907	10.0001	36.9307	717.849	85.87	88.9527	8.49332e-5
0.0280219	1.16806	41.6840	10.0001	39.6281	724.662	85.63	88.9190	8.43609e-5
0.0323992	1.25755	38.8142	10.0001	42.6914	731.526	85.42	88.7901	8.44074e-5
0.0364420	1.36845	37.5514	10.0001	46.2097	738.244	85.21	88.7111	8.39548e-5
0.0438324	1.50179	34.2621	10.0001	50.4515	745.136	84.92	88.5343	8.35182e-5
0.0509445	1.64381	32.2667	10.0001	55.2963	751.982	84.70	88.4032	8.36324e-5
0.0552497	1.77294	32.0896	10.0001	60.0623	758.887	84.51	88.3712	8.42246e-5
0.0615173	1.89153	30.7479	10.0001	64.3760	765.614	84.29	88.2751	8.46106e-5
0.0695453	2.01043	28.9083	10.0001	68.5745	771.923	84.10	88.1400	8.47893e-5
0.0758995	2.15741	28.4245	10.0001	73.2073	778.690	83.86	88.0875	8.43438e-5
0.0859465	2.32916	27.1001	10.0001	78.6898	785.581	83.65	87.9694	8.39687e-5
0.0961674	2.50424	26.0404	10.0001	84.7450	792.371	83.40	87.8652	8.41120e-5
0.112575	2.70603	24.0377	10.0001	91.3087	799.151	83.15	87.6630	8.38578e-5
0.127404	2.93363	23.0263	10.0001	98.7978	805.939	82.96	87.5389	8.36912e-5
0.140521	3.16353	22.5129	10.0001	106.798	812.845	82.73	87.4640	8.38912e-5
0.162310	3.42400	21.0955	10.0001	115.197	819.538	82.50	87.2743	8.35897e-5
0.183000	3.67536	20.0839	10.0001	124.249	826.302	82.26	87.1207	8.39860e-5
0.204550	3.98165	19.4654	10.0001	133.832	833.064	82.04	87.0108	8.34988e-5
0.234023	4.28811	18.3235	10.0001	144.458	839.198	81.78	86.8095	8.36703e-5
0.263118	4.62340	17.5716	10.0001	155.632	846.158	81.60	86.6572	8.36043e-5
0.301798	4.99240	16.5422	10.0001	167.723	852.945	81.40	86.4350	8.34213e-5
0.345069	5.38697	15.6113	10.0001	181.059	859.807	81.19	86.2090	8.34394e-5
0.392327	5.80484	14.7959	10.0001	195.203	866.612	80.91	85.9869	8.34649e-5
0.436733	6.22944	14.2637	10.0001	209.910	872.802	80.70	85.8229	8.36286e-5
0.498030	6.75162	13.5567	10.0001	225.877	879.684	80.50	85.5903	8.30064e-5
0.580482	7.34467	12.6527	10.0001	244.929	886.597	80.24	85.2636	8.27147e-5
0.659725	8.00000	12.1263	10.0001	266.520	893.352	80.01	85.0398	8.26137e-5
0.770014	8.67974	11.2722	10.0001	289.551	900.173	79.82	84.6555	8.26852e-5
0.880917	9.43539	10.7109	10.0001	314.312	907.155	79.55	84.3598	8.25398e-5
1.02420	10.3093	10.0657	10.0001	341.900	913.835	79.32	83.9844	8.21336e-5
1.17478	11.1752	9.51260	10.0001	372.588	920.595	79.13	83.6221	8.25316e-5
1.35821	12.1129	8.91827	10.0001	403.867	927.282	78.86	83.1881	8.24851e-5
1.59052	13.3107	8.36877	10.0001	439.154	934.195	78.67	82.7249	8.15637e-5
1.81461	14.4269	7.95042	10.0001	480.733	941.048	78.44	82.3267	8.23317e-5
2.10804	15.6978	7.44665	10.0001	521.347	947.860	78.18	81.7983	8.19779e-5
2.46680	17.1648	6.95831	10.0001	567.803	954.607	77.98	81.2126	8.15704e-5
2.82406	18.6531	6.60508	10.0001	619.305	961.351	77.77	80.7251	8.17919e-5
3.23764	20.1828	6.23378	10.0001	671.691	968.020	77.53	80.1630	8.19011e-5
3.71782	21.8242	5.87016	10.0001	726.614	974.845	77.33	79.5472	8.18261e-5
4.25651	23.5708	5.53759	10.0001	785.775	981.753	77.09	78.9133	8.18245e-5
4.88284	25.5359	5.22972	10.0001	849.074	988.423	76.87	78.2515	8.14913e-5
5.60430	27.7026	4.94309	10.0001	920.327	995.089	76.62	77.5595	8.12859e-5
6.41428	29.9893	4.67539	10.0001	998.615	1001.96	76.40	76.8389	8.13363e-5
7.34610	32.3763	4.40728	10.0001	1081.84	1008.80	76.16	76.0400	8.14424e-5
8.41072	35.1666	4.18116	10.0001	1170.39	1015.61	75.95	75.2707	8.09514e-5
9.79295	38.1920	3.89995	10.0001	1272.36	1022.55	75.69	74.2293	8.07853e-5
11.2356	41.3637	3.68150	10.0001	1385.23	1029.33	75.54	73.2988	8.09820e-5
12.6907	44.3347	3.49350	10.0001	1502.96	1035.53	75.28	72.4140	8.17519e-5
14.6787	48.2346	3.28601	10.0001	1616.06	1042.36	75.04	71.3206	8.05096e-5
16.8453	52.0233	3.08829	10.0001	1763.30	1049.31	74.83	70.1684	8.11161e-5
19.3003	56.2732	2.91567	10.0001	1909.45	1056.08	74.60	69.0275	8.08632e-5
21.8261	60.4424	2.76927	10.0001	2072.43	1062.87	74.35	67.9549	8.13967e-5
24.5724	64.6061	2.62921	10.0001	2234.03	1069.76	74.20	66.8381	8.17166e-5
27.6969	68.9980	2.49118	10.0001	2398.24	1076.59	73.92	65.6363	8.17283e-5
31.3230	73.9594	2.36118	10.0001	2574.08	1083.44	73.69	64.3807	8.14046e-5
35.7708	79.7372	2.22912	10.0001	2774.04	1090.19	73.41	62.9721	8.08658e-5
39.9667	84.7953	2.12165	10.0001	3007.68	1097.06	73.24	61.7232	8.19606e-5
44.7263	90.0413	2.01316	10.0001	3217.03	1103.97	73.00	60.3658	8.20032e-5
49.8812	95.5631	1.91581	10.0001	3439.08	1110.78	72.75	59.0309	8.20358e-5
55.3108	101.097	1.82780	10.0001	3674.27	1117.60	72.55	57.7258	8.22799e-5
61.4558	106.887	1.73925	10.0001	3913.76	1124.42	72.34	56.3210	8.22480e-5
68.3886	113.211	1.65541	10.0001	4170.48	1131.27	72.07	54.8766	8.20727e-5
75.8753	119.352	1.57300	10.0001	4452.77	1138.11	71.88	53.3697	8.23410e-5
83.5643	125.394	1.50057	10.0001	4737.83	1144.96	71.67	51.9441	8.26374e-5
90.7199	130.677	1.44044	10.0001	5022.15	1151.04	71.44	50.6905	8.33560e-5
98.4082	135.845	1.38043	10.0001	5277.41	1157.31	71.28	49.3829	8.34761e-5
107.492	142.114	1.32209	10.0001	5538.43	1164.09	71.00	48.0110	8.29504e-5
117.717	148.055	1.25772	10.0001	5848.97	1170.94	70.75	46.4536	8.30524e-5
128.907	154.634	1.19958	10.0001	6169.47	1177.69	70.55	44.9370	8.28819e-5
140.503	160.627	1.14323	10.0001	6519.75	1184.48	70.30	43.4105	8.32175e-5
150.774	165.723	1.09915	10.0001	6861.08	1190.77	70.12	42.1541	8.39398e-5
161.042	170.111	1.05631	10.0001	7157.63	1196.87	69.91	40.9062	8.42732e-5
173.598	175.568	1.01135	10.0001	7438.14	1203.72	69.65	39.5223	8.37149e-5
187.273	180.920	0.966074	10.0001	7780.90	1210.59	69.46	38.0813	8.37111e-5
200.508	185.279	0.924051	10.0001	8138.87	1217.44	69.19	36.7134	8.41724e-5
214.454	189.687	0.884514	10.0001	8467.43	1224.14	68.98	35.3731	8.41809e-5
228.189	193.922	0.849831	10.0001	8807.92	1231.10	68.77	34.1509	8.43826e-5
243.515	197.848	0.812468	10.0001	9140.00	1237.86	68.56	32.8133	8.43008e-5
258.485	201.033	0.777734	10.0001	9493.01	1244.67	68.29	31.5461	8.46019e-5
273.715	204.418	0.746829	10.0001	9824.63	1251.49	68.07	30.3735	8.46391e-5
289.365	206.999	0.715357	10.0001	10162.6	1258.39	67.85	29.1729	8.47919e-5
305.479	209.454	0.685657	10.0001	10493.4	1265.14	67.63	28.0115	8.48359e-5
324.389	211.593	0.652282	10.0001	10829.8	1272.06	67.41	26.6903	8.45859e-5
344.542	213.286	0.619041	10.0001	11210.2	1278.94	67.14	25.3511	8.45822e-5
360.786	214.528	0.594613	10.0001	11603.1	1285.68	66.91	24.3453	8.52357e-5
375.434	215.132	0.573024	10.0001	11916.9	1291.85	66.72	23.4531	8.55643e-5
390.055	215.333	0.552058	10.0001	12192.0	1298.05	66.54	22.5821	8.56515e-5
406.134	215.480	0.530565	10.0001	12460.6	1304.77	66.34	21.6766	8.55229e-5
421.801	215.072	0.509890	10.0001	12753.3	1311.63	66.08	20.8058	8.56737e-5
437.261	214.389	0.490299	10.0001	13031.2	1318.32	65.85	19.9748	8.57601e-5
453.238	213.145	0.470272	10.0001	13300.6	1325.02	65.65	19.1259	8.57767e-5
468.737	211.924	0.452116	10.0001	13572.3	1331.74	65.44	18.3485	8.58678e-5
483.920	211.248	0.436535	10.0001	13834.9	1338.50	65.20	17.6661	8.59066e-5
500.265	209.218	0.418214	10.0001	14096.4	1345.41	64.93	16.8815	8.59045e-5
516.869	207.136	0.400752	10.0001	14364.2	1352.27	64.73	16.1276	8.59135e-5
532.518	204.347	0.383738	10.0001	14634.0	1359.05	64.50	15.4014	8.60783e-5
548.271	202.358	0.369084	10.0001	14881.0	1365.94	64.25	14.7612	8.60576e-5
563.406	199.885	0.354779	10.0001	15135.1	1372.80	64.03	14.1419	8.61675e-5
577.256	196.940	0.341166	10.0001	15373.2	1378.96	63.83	13.5595	8.63311e-5
591.559	193.775	0.327566	10.0001	15586.0	1385.66	63.62	12.9773	8.63165e-5
605.691	190.872	0.315132	10.0001	15803.6	1392.46	63.39	12.4416	8.63411e-5
619.526	187.462	0.302590	10.0001	16019.9	1399.23	63.19	11.9066	8.64037e-5
401.192	-127.133	-0.316888	10.0001	16184.2	1406.12	62.98	-13.8634	1.20578e-4
561.606	133.772	0.238196	10.0001	11799.2	1412.97	62.72	9.78046	6.93292e-5
-227.606	-42.9379	0.188650	10.0001	14903.1	1419.79	62.44	192.537	1.36643e-4
483.252	197.498	0.408685	10.0001	9048.26	1426.65	62.24	16.6928	5.67669e-5
-117.218	350.652	-2.99145	10.0001	13977.0	1433.57	62.02	94.7723	8.94712e-5
608.788	202.127	0.332016	10.0001	13407.7	1440.39	61.80	13.0285	7.26519e-5
-39.6343	-357.491	9.01972	10.0001	16151.2	1447.25	61.58	-83.0468	1.11807e-4
57.2624	-195.044	-3.40615	10.0001	12447.7	1454.06	61.33	-66.7389	1.59037e-4
-40.3032	-108.427	2.69028	10.0001	6854.49	1460.80	61.14	253.703	1.43904e-4
683.965	127.170	0.185930	10.0001	4013.34	1467.72	60.88	7.28107	2.06937e-5
210.781	126.917	0.602128	10.0001	16958.8	1474.51	60.66	26.9414	1.95166e-4
674.686	139.218	0.206345	10.0001	7742.98	1481.22	60.43	8.08525	4.01636e-5
159.269	-113.934	-0.715355	10.0001	16861.5	1487.49	60.19	-31.7756	2.36613e-4
119.475	-136.981	-1.14653	10.0001	6369.73	1494.26	60.02	-44.2280	9.41645e-5
668.116	114.821	0.171858	10.0001	6014.18	1501.03	59.78	6.79402	3.15890e-5
207.505	196.236	0.945694	10.0001	16643.0	1507.91	59.59	37.0465	1.65284e-4
101.268	81.5768	0.805555	10.0001	8896.71	1514.67	59.31	36.0342	1.81450e-4
50.4963	5.25106	0.103989	10.0001	4468.90	1521.61	59.08	5.75011	2.26057e-4
690.739	134.672	0.194968	10.0001	1994.10	1528.41	58.86	7.59979	1.01971e-5
219.713	361.695	1.64622	10.0001	17092.6	1535.23	58.63	47.2002	1.17001e-4
57.9595	157.047	2.70960	10.0001	12775.3	1541.99	58.40	64.1817	1.97802e-4
-64.8063	-78.5206	1.21162	10.0001	5705.16	1548.92	58.20	233.481	1.33715e-4
-54.3244	6.39438	-0.117707	10.0001	3485.83	1555.71	57.94	173.043	1.52936e-4
-5.80893	-20.1838	3.47462	10.0001	1659.33	1562.51	57.73	254.673	1.95721e-4
4.62534	-8.47448	-1.83219	10.0001	704.111	1569.37	57.48	-61.0988	1.81984e-4
779.877	126.637	0.162380	10.0001	474.872	1576.20	57.26	6.11778	2.24795e-6
135.374	-129.204	-0.954426	10.0001	18464.9	1583.07	57.01	-39.2933	2.67563e-4
739.027	97.4143	0.131814	10.0001	6162.80	1589.86	56.82	5.07685	3.03638e-5
229.875	111.356	0.484417	10.0001	17748.9	1596.73	56.57	22.2759	1.98767e-4
737.672	105.324	0.142779	10.0001	7966.17	1603.55	56.37	5.49460	3.92450e-5
707.699	290.979	0.411163	10.0001	17755.2	1610.44	56.14	15.0206	8.46710e-5
223.499	-316.425	-1.41578	10.0001	18317.5	1617.17	55.88	-44.6744	1.36617e-4
258.430	-15.6704	-0.0606368	10.0001	11745.3	1624.11	55.71	-2.97475	1.31575e-4
236.244	-7.52006	-0.0318317	10.0001	7981.69	1630.81	55.46	-1.58262	9.67441e-5
55.1536	-80.4020	-1.45778	10.0001	7399.26	1637.70	55.21	-52.6941	1.95659e-4
39.7001	18.8335	0.474395	10.0001	3433.20	1644.47	54.97	24.7064	1.99330e-4
11.8216	17.3578	1.46831	10.0001	1766.36	1651.36	54.74	55.1234	2.10806e-4
13.8374	8.93458	0.645686	10.0001	940.853	1658.18	54.56	32.5363	1.43371e-4
-9.61337	6.23336	-0.648405	10.0001	839.510	1665.00	54.31	146.828	1.81016e-4
-4.94332	-0.682723	0.138110	10.0001	244.540	1671.90	54.10	187.878	1.21305e-4
988.674	1310.75	1.32577	10.0001	35.9241	1678.73	53.83	25.7062	1.00162e-7
1745.25	251.778	0.144265	10.0001	31123.6	1685.53	53.65	3.84557	9.34544e-5
694.938	-30.8231	-0.0443538	10.0001	28960.6	1692.39	53.37	-1.75450	1.49839e-4
750.675	111.964	0.149151	10.0001	16918.8	1699.28	53.14	5.70248	8.23137e-5
273.525	93.0824	0.340307	10.0001	17989.1	1706.08	52.93	15.8789	1.82323e-4
-178.895	46.5936	-0.260453	10.0001	8783.58	1712.78	52.71	163.462	1.04618e-4
802.119	89.9641	0.112158	10.0001	6939.89	1719.70	52.52	4.21302	3.24399e-5
604.617	286.925	0.474557	10.0001	18714.0	1726.61	52.24	17.8166	9.74390e-5
772.204	93.5768	0.121181	10.0001	16812.4	1733.36	52.04	4.60621	8.05204e-5
186.537	5.90394	0.0316502	10.0001	18272.3	1740.30	51.79	1.61857	2.72714e-4
-110.426	124.088	-1.12372	10.0001	6078.43	1746.99	51.59	126.755	8.48436e-5
780.568	96.4969	0.123624	10.0001	5998.40	1753.62	51.35	4.68080	2.85158e-5
207.188	405.949	1.95933	10.0001	18396.0	1760.57	51.14	49.9842	1.16741e-4
396.715	-244.617	-0.616608	10.0001	13768.2	1767.38	50.90	-24.5123	9.29388e-5
813.966	79.9007	0.0981621	10.0001	13029.0	1774.18	50.68	3.67404	6.03982e-5
771.177	77.2899	0.100223	10.0001	18876.8	1781.04	50.43	3.81972	9.06735e-5
181.948	-158.146	-0.869181	10.0001	18222.5	1787.20	50.22	-35.7932	2.10860e-4
806.864	111.427	0.138099	10.0001	7684.09	1793.85	50.04	5.16092	3.56796e-5
155.014	-122.854	-0.792534	10.0001	18848.2	1800.21	49.83	-34.2881	2.61283e-4

[step]
Temperature ramp - 2
Storage modulus	Loss modulus	Tan(delta)	Angular frequency	Oscillation torque	Step time	Temperature	Raw phase	Oscillation displacement
MPa	MPa		rad/s	µN.m	s	°C	°	rad
8.56473	1.99441	0.232863	10.0001	11161.1	6.04783	50.23	13.0455	3.17610e-3
22.1348	2.56474	0.115869	10.0001	406.202	12.8163	50.55	6.51814	4.59920e-5
17.2174	2.80549	0.162945	10.0001	718.598	19.5822	50.88	9.15607	1.03615e-4
16.8629	2.34672	0.139165	10.0001	602.152	26.4354	51.08	7.84027	8.89526e-5
16.4245	2.21334	0.134758	10.0001	587.167	33.2144	51.32	7.59725	8.90727e-5
16.1510	2.12388	0.131502	10.0001	573.388	40.0512	51.54	7.41716	8.84760e-5
15.7359	2.06230	0.131057	10.0001	561.804	46.8685	51.78	7.39442	8.89642e-5
15.4352	2.01131	0.130307	10.0001	548.482	53.5424	51.97	7.35405	8.85365e-5
14.7855	1.94013	0.131218	10.0001	533.980	60.2121	52.19	7.40815	8.99450e-5
14.2864	1.91638	0.134141	10.0001	513.233	67.1555	52.48	7.57371	8.94025e-5
13.7494	1.85937	0.135233	10.0001	495.378	73.9331	52.64	7.63740	8.96230e-5
13.2886	1.80966	0.136182	10.0001	477.625	80.7878	52.88	7.69274	8.93706e-5
12.7579	1.75943	0.137908	10.0001	460.679	87.6987	53.12	7.79188	8.97332e-5
12.2287	1.72108	0.140741	10.0001	442.078	94.4787	53.39	7.95274	8.97783e-5
11.8555	1.66358	0.140322	10.0001	425.899	101.242	53.58	7.93138	8.91888e-5
11.3014	1.64163	0.145259	10.0001	410.344	108.034	53.79	8.20977	9.00610e-5
10.8418	1.60954	0.148457	10.0001	392.438	114.636	54.02	8.39063	8.97148e-5
10.4091	1.56870	0.150705	10.0001	376.696	121.532	54.28	8.51836	8.96417e-5
9.88498	1.50351	0.152100	10.0001	360.275	128.433	54.48	8.59926	9.02365e-5
9.44233	1.46284	0.154923	10.0001	343.152	135.152	54.69	8.75914	8.99180e-5
9.06929	1.38233	0.152419	10.0001	328.579	142.172	54.93	8.62206	8.96535e-5
8.73119	1.36539	0.156381	10.0001	315.894	148.816	55.13	8.84480	8.94610e-5
8.41917	1.33037	0.158016	10.0001	304.451	155.758	55.37	8.93785	8.93772e-5
8.05938	1.32983	0.165004	10.0001	292.973	162.550	55.59	9.32870	8.97284e-5
7.79706	1.29515	0.166107	10.0001	281.796	169.279	55.84	9.39179	8.91917e-5
7.50146	1.22628	0.163473	10.0001	272.074	176.058	56.10	9.24754	8.95208e-5
7.28797	1.20288	0.165051	10.0001	262.908	182.927	56.28	9.33674	8.90083e-5
7.11441	1.20079	0.168783	10.0001	255.992	189.780	56.52	9.54525	8.87198e-5
6.95500	1.16039	0.166843	10.0001	250.078	196.621	56.79	9.43874	8.86739e-5
6.86423	1.13099	0.164767	10.0001	245.379	203.361	56.99	9.32404	8.81859e-5
6.70825	1.12151	0.167184	10.0001	241.186	210.263	57.22	9.45953	8.86591e-5
6.62932	1.14850	0.173246	10.0001	237.058	217.104	57.45	9.79654	8.80817e-5
6.55434	1.10480	0.168560	10.0001	234.274	223.859	57.64	9.53714	8.81132e-5
6.43386	1.12040	0.174141	10.0001	230.857	230.706	57.84	9.84766	8.83639e-5
6.42230	1.14772	0.178708	10.0001	228.667	237.436	58.14	10.1007	8.76109e-5
6.36967	1.13816	0.178685	10.0001	227.578	244.308	58.34	10.0999	8.79215e-5
6.31221	1.13207	0.179347	10.0001	225.675	251.163	58.60	10.1370	8.79564e-5
6.23540	1.14296	0.183302	10.0001	223.451	257.881	58.80	10.3564	8.81015e-5
6.21399	1.16605	0.187648	10.0001	221.636	264.669	59.03	10.5965	8.76189e-5
6.18466	1.18811	0.192105	10.0001	221.024	271.350	59.25	10.8425	8.77183e-5
6.13351	1.20803	0.196955	10.0001	219.835	277.481	59.44	11.1099	8.78970e-5
6.12272	1.21474	0.198399	10.0001	218.738	284.132	59.64	11.1894	8.75871e-5
6.09993	1.25394	0.205566	10.0001	218.485	290.974	59.87	11.5829	8.76809e-5
6.06100	1.29369	0.213445	10.0001	217.678	297.871	60.13	12.0144	8.77785e-5
6.04169	1.29688	0.214656	10.0001	216.824	304.705	60.35	12.0808	8.76897e-5
5.97873	1.33324	0.222998	10.0001	215.680	311.562	60.57	12.5362	8.79980e-5
5.95358	1.38303	0.232303	10.0001	214.385	318.350	60.81	13.0418	8.76555e-5
5.93938	1.43648	0.241856	10.0001	214.107	325.190	61.04	13.5586	8.75668e-5
5.91627	1.46462	0.247558	10.0001	213.843	332.048	61.30	13.8662	8.76838e-5
5.91154	1.48278	0.250829	10.0001	213.449	338.338	61.50	14.0422	8.75175e-5
5.92914	1.55149	0.261672	10.0001	213.978	345.214	61.68	14.6232	8.72472e-5
5.91327	1.60193	0.270904	10.0001	214.651	352.089	61.95	15.1158	8.75513e-5
5.85057	1.67949	0.287065	10.0001	214.103	358.886	62.15	15.9731	8.78996e-5
5.88047	1.74332	0.296460	10.0001	213.983	365.711	62.40	16.4672	8.71847e-5
5.78282	1.73899	0.300716	10.0001	213.334	372.558	62.58	16.6918	8.82808e-5
5.73716	1.78930	0.311879	10.0001	211.175	378.759	62.80	17.2754	8.78005e-5
5.78433	1.87288	0.323785	10.0001	211.732	385.414	63.13	17.8923	8.70074e-5
5.71395	1.89588	0.331799	10.0001	212.036	392.168	63.26	18.3067	8.80061e-5
5.70103	1.99680	0.350253	10.0001	211.411	398.729	63.50	19.2511	8.74479e-5
5.68462	2.07094	0.364306	10.0001	212.057	405.555	63.71	19.9632	8.75796e-5
5.54315	2.08979	0.377004	10.0001	210.054	412.465	63.96	20.6033	8.85882e-5
5.54664	2.16424	0.390190	10.0001	208.156	419.327	64.15	21.2597	8.73467e-5
5.39943	2.20504	0.408384	10.0001	207.007	426.170	64.44	22.1588	8.86675e-5
5.26747	2.21260	0.420049	10.0001	202.631	432.939	64.65	22.7302	8.85940e-5
5.14787	2.26055	0.439122	10.0001	199.049	439.822	64.86	23.6524	8.84270e-5
5.08916	2.29800	0.451548	10.0001	196.414	446.669	65.09	24.2460	8.78595e-5
4.88042	2.26581	0.464265	10.0001	192.661	453.433	65.32	24.8513	8.94248e-5
4.69754	2.27218	0.483696	10.0001	186.279	460.062	65.55	25.7622	8.91468e-5
4.51923	2.19800	0.486367	10.0001	179.926	466.854	65.76	25.8902	8.94026e-5
4.41949	2.23692	0.506149	10.0001	175.211	473.487	65.99	26.7998	8.83176e-5
4.26661	2.28457	0.535453	10.0001	172.320	480.364	66.21	28.1213	8.89043e-5
4.08772	2.23099	0.545777	10.0001	166.789	487.174	66.48	28.5832	8.94126e-5
4.05357	2.31536	0.571191	10.0001	163.761	494.011	66.67	29.6913	8.75780e-5
3.86725	2.31933	0.599735	10.0001	161.515	500.730	66.89	30.9122	8.94076e-5
3.64256	2.22160	0.609901	10.0001	154.256	507.620	67.12	31.3454	9.02456e-5
3.64712	2.34887	0.644033	10.0001	151.186	514.479	67.33	32.7456	8.69889e-5
3.45055	2.30690	0.668560	10.0001	149.449	520.567	67.59	33.7329	8.98595e-5
3.42317	2.37284	0.693169	10.0001	146.137	527.359	67.76	34.6951	8.75690e-5
3.36102	2.46129	0.732303	10.0001	146.601	534.219	68.00	36.1807	8.78211e-5
3.15462	2.42891	0.769956	10.0001	143.578	540.946	68.23	37.5656	8.99918e-5
2.91982	2.29260	0.785186	10.0001	135.258	547.854	68.42	38.1196	9.09161e-5
2.88123	2.40638	0.835194	10.0001	131.528	554.605	68.70	39.8471	8.74082e-5
2.68377	2.29821	0.856336	10.0001	128.164	561.315	68.95	40.5625	9.04891e-5
2.59870	2.29916	0.884735	10.0001	123.197	568.157	69.16	41.4908	8.85698e-5
2.40880	2.25123	0.934587	10.0001	119.417	574.952	69.36	43.0621	9.03481e-5
2.27146	2.21359	0.974523	10.0001	114.034	581.796	69.63	44.2659	8.96785e-5
2.20294	2.24057	1.01708	10.0001	111.244	588.607	69.82	45.4921	8.83048e-5
2.30040	2.47197	1.07458	10.0001	114.584	595.465	70.02	47.0533	8.46272e-5
2.13325	2.36807	1.11007	10.0001	115.667	602.339	70.28	47.9907	9.05015e-5
1.98923	2.36398	1.18839	10.0001	111.049	609.173	70.50	49.9306	8.96279e-5
1.87537	2.24178	1.19538	10.0001	105.678	615.994	70.71	50.1064	9.01619e-5
1.74176	2.21908	1.27404	10.0001	101.538	622.745	70.98	51.8995	8.97459e-5
1.76566	2.45202	1.38873	10.0001	103.147	629.708	71.18	54.2583	8.50998e-5
1.63572	2.31467	1.41508	10.0001	103.096	636.429	71.43	54.7802	9.06730e-5
1.58065	2.38545	1.50916	10.0001	100.691	643.321	71.63	56.4975	8.77076e-5
1.54447	2.42473	1.56994	10.0001	101.153	650.185	71.83	57.5303	8.77017e-5
1.44743	2.43947	1.68537	10.0001	101.136	657.003	72.09	59.3471	8.88562e-5
1.36478	2.34275	1.71658	10.0001	97.6632	663.872	72.36	59.8160	8.97742e-5
1.26058	2.30691	1.83004	10.0001	94.5812	670.653	72.54	61.3926	8.96604e-5
1.22045	2.32939	1.90864	10.0001	92.7063	677.499	72.77	62.3951	8.78423e-5
1.17657	2.41679	2.05410	10.0001	94.0998	684.370	72.98	64.0843	8.72243e-5
1.09968	2.32939	2.11825	10.0001	92.8281	691.121	73.27	64.7808	8.97809e-5
1.03646	2.27430	2.19431	10.0001	89.4885	697.903	73.51	65.5595	8.92004e-5
1.01049	2.41341	2.38836	10.0001	90.5674	704.794	73.68	67.3308	8.62239e-5
0.991218	2.52569	2.54806	10.0001	94.1923	711.664	73.94	68.6141	8.64664e-5
0.896332	2.33974	2.61035	10.0001	91.9632	718.411	74.13	69.0991	9.14189e-5
0.825683	2.22826	2.69869	10.0001	86.0770	725.336	74.37	69.7409	9.02198e-5
0.761334	2.15855	2.83522	10.0001	82.4343	732.089	74.62	70.6545	8.96967e-5
0.712183	2.13413	2.99660	10.0001	80.1908	738.977	74.87	71.6327	8.87584e-5
0.690728	2.17524	3.14920	10.0001	80.0107	745.730	75.06	72.4673	8.72974e-5
0.668695	2.22312	3.32457	10.0001	81.2654	752.563	75.27	73.3395	8.71646e-5
0.645022	2.23166	3.45981	10.0001	81.9597	759.324	75.48	73.9594	8.78489e-5
0.608714	2.16982	3.56460	10.0001	80.6547	765.547	75.71	74.4173	8.91112e-5
0.562216	2.07056	3.68285	10.0001	77.5096	771.877	75.94	74.9094	8.99478e-5
0.546639	2.11374	3.86680	10.0001	76.3939	778.090	76.14	75.5968	8.71112e-5
0.522583	2.13587	4.08714	10.0001	77.3718	784.855	76.36	76.3465	8.76010e-5
0.498082	2.10611	4.22845	10.0001	76.9052	791.747	76.60	76.7936	8.84621e-5
0.470968	2.09973	4.45832	10.0001	76.1800	798.527	76.81	77.4588	8.81228e-5
0.448187	2.07104	4.62092	10.0001	75.3031	805.326	77.06	77.8941	8.84569e-5
0.433235	2.16284	4.99231	10.0001	76.3825	812.244	77.27	78.7682	8.61856e-5
0.422968	2.25105	5.32202	10.0001	79.3207	819.007	77.48	79.4440	8.61920e-5
0.413972	2.24969	5.43440	10.0001	80.5854	825.808	77.74	79.6596	8.76762e-5
0.384980	2.37288	6.16364	10.0001	83.0168	832.554	77.96	80.8585	8.59338e-5
0.381100	2.54435	6.67632	10.0001	87.6534	839.279	78.23	81.5387	8.47835e-5
0.364385	2.57123	7.05637	10.0001	91.1760	846.086	78.39	81.9891	8.73642e-5
0.337148	2.73371	8.10834	10.0001	94.5976	852.935	78.63	83.0101	8.54561e-5
0.323635	2.89543	8.94660	10.0001	99.8803	859.773	78.92	83.6496	8.52902e-5
0.314768	2.93564	9.32637	10.0001	103.311	866.616	79.12	83.9041	8.70501e-5
0.292424	3.00238	10.2672	10.0001	105.265	873.396	79.30	84.4561	8.68179e-5
0.282678	2.99039	10.5788	10.0001	106.047	880.254	79.53	84.6200	8.78337e-5
0.271496	2.99108	11.0171	10.0001	105.838	887.090	79.80	84.8336	8.76643e-5
0.246035	2.99513	12.1736	10.0001	106.073	893.801	79.97	85.3239	8.78088e-5
0.229380	2.95728	12.8925	10.0001	105.302	900.448	80.20	85.5879	8.83130e-5
0.209649	2.90283	13.8461	10.0001	103.676	907.349	80.45	85.8968	8.86115e-5
0.198353	2.87219	14.4802	10.0001	101.997	914.160	80.69	86.0798	8.81266e-5
0.179722	2.79549	15.5545	10.0001	100.204	920.990	80.92	86.3585	8.89791e-5
0.160088	2.71531	16.9614	10.0001	97.4473	927.824	81.16	86.6701	8.91170e-5
0.152099	2.61183	17.1719	10.0001	93.9670	934.546	81.33	86.7209	8.93445e-5
0.138062	2.50948	18.1764	10.0001	90.3682	941.509	81.59	86.9146	8.94414e-5
0.125360	2.42870	19.3738	10.0001	87.1625	948.333	81.83	87.1171	8.91478e-5
0.115085	2.32672	20.2174	10.0001	83.8752	955.191	82.04	87.2511	8.95577e-5
0.104949	2.20653	21.0249	10.0001	79.9320	962.027	82.27	87.3733	9.00034e-5
0.0936546	2.08285	22.2397	10.0001	75.6048	968.908	82.47	87.5370	9.01968e-5
0.0801338	1.96407	24.5099	10.0001	71.3187	975.732	82.70	87.7910	9.02393e-5
0.0748646	1.83756	24.5451	10.0001	66.8411	982.558	82.98	87.8128	9.03970e-5
0.0647655	1.73045	26.7187	10.0001	62.8211	989.386	83.18	88.0196	9.02372e-5
0.0592509	1.62714	27.4619	10.0001	59.0435	996.176	83.38	88.0958	9.02010e-5
0.0527729	1.52047	28.8116	10.0001	55.2962	1003.01	83.60	88.2143	9.04069e-5
0.0466058	1.42869	30.6547	10.0001	51.8352	1009.91	83.85	88.3537	9.01971e-5
0.0433196	1.33848	30.8978	10.0001	48.5982	1016.55	84.08	88.3903	9.02613e-5
0.0392220	1.25724	32.0546	10.0001	45.5901	1023.26	84.28	88.4791	9.01525e-5
0.0353388	1.17101	33.1366	10.0001	42.5827	1030.14	84.55	88.5636	9.04079e-5
0.0311368	1.08982	35.0009	10.0001	39.6490	1036.94	84.78	88.6836	9.04523e-5
0.0272691	1.01781	37.3248	10.0001	36.9595	1043.71	84.99	88.8137	9.02896e-5
0.0245821	0.953519	38.7891	10.0001	34.5780	1050.55	85.21	88.9000	9.01629e-5
0.0228706	0.895432	39.1521	10.0001	32.4145	1057.53	85.47	88.9426	9.00116e-5
0.0203965	0.839399	41.1541	10.0001	30.4014	1064.29	85.67	89.0451	9.00562e-5
0.0185720	0.793208	42.7099	10.0001	28.6243	1071.09	85.88	89.1248	8.97375e-5
0.0167285	0.741234	44.3096	10.0001	26.8643	1077.96	86.12	89.2098	9.01215e-5
0.0147568	0.690574	46.7970	10.0001	25.0520	1084.75	86.35	89.3193	9.02154e-5
0.0128449	0.639162	49.7600	10.0001	23.2408	1091.61	86.58	89.4398	9.04214e-5
0.0119932	0.593057	49.4496	10.0001	21.5384	1098.43	86.80	89.4821	9.03131e-5
0.0109593	0.555512	50.6885	10.0001	20.0973	1104.53	87.01	89.5566	8.99694e-5
0.0100451	0.521876	51.9533	10.0001	18.8599	1111.32	87.28	89.6309	8.98697e-5
8.81190e-3	0.485789	55.1288	10.0001	17.6185	1118.18	87.44	89.7517	9.01943e-5
7.72086e-3	0.455624	59.0122	10.0001	16.4629	1124.90	87.69	89.8748	8.98578e-5
6.78316e-3	0.423471	62.4298	10.0001	15.3493	1131.82	87.91	89.9946	9.01374e-5
6.28365e-3	0.393132	62.5642	10.0001	14.2573	1138.56	88.21	90.0692	9.01822e-5
5.70579e-3	0.367533	64.4139	10.0001	13.2896	1145.21	88.37	90.1662	8.99230e-5
5.11368e-3	0.344364	67.3418	10.0001	12.4422	1152.02	88.62	90.2776	8.98473e-5
4.42575e-3	0.322066	72.7709	10.0001	11.6397	1158.86	88.84	90.4209	8.98737e-5
3.80394e-3	0.299086	78.6254	10.0001	10.8368	1165.78	89.04	90.5741	9.01019e-5
3.66133e-3	0.277148	75.6960	10.0001	10.0489	1172.54	89.30	90.6507	9.01596e-5
3.27060e-3	0.257857	78.8409	10.0001	9.33827	1179.34	89.54	90.7877	9.00537e-5
2.70067e-3	0.241548	89.4402	10.0001	8.72166	1186.20	89.74	90.9772	8.97754e-5
2.57609e-3	0.227015	88.1238	10.0001	8.18356	1193.07	89.92	91.0724	8.96326e-5
2.45438e-3	0.213497	86.9860	10.0001	7.69757	1199.87	90.18	91.1739	8.96440e-5
2.02545e-3	0.199245	98.3703	10.0001	7.20472	1206.71	90.46	91.3821	8.98937e-5
1.67263e-3	0.188293	112.573	10.0001	6.77434	1213.51	90.63	91.5707	8.94373e-5
1.54195e-3	0.174678	113.283	10.0001	6.32624	1220.37	90.91	91.7369	9.00214e-5
1.52462e-3	0.162558	106.622	10.0001	5.88085	1227.25	91.09	91.8733	8.99161e-5
1.33887e-3	0.153677	114.781	10.0001	5.53328	1234.14	91.35	92.0512	8.94761e-5
1.13680e-3	0.144785	127.362	10.0001	5.21560	1240.87	91.59	92.2578	8.95142e-5
9.36154e-4	0.134907	144.107	10.0001	4.88022	1247.65	91.77	92.5088	8.98768e-5
9.63899e-4	0.125512	130.212	10.0001	4.54260	1254.54	92.04	92.6842	8.99028e-5
7.94894e-4	0.116963	147.143	10.0001	4.23368	1261.34	92.23	92.9635	8.98960e-5
6.18450e-4	0.108933	176.139	10.0001	3.94307	1268.13	92.48	93.2746	8.98699e-5
5.29505e-4	0.101852	192.353	10.0001	3.68177	1275.02	92.67	93.5524	8.97300e-5
5.11342e-4	0.0953329	186.437	10.0001	3.44627	1281.85	92.93	93.8053	8.96921e-5
5.21313e-4	0.0892888	171.277	10.0001	3.22590	1288.61	93.15	94.0563	8.96166e-5
4.02206e-4	0.0833128	207.140	10.0001	3.01753	1295.50	93.41	94.4282	8.98012e-5
3.35066e-4	0.0776020	231.602	10.0001	2.81402	1302.28	93.64	94.8020	8.98542e-5
3.00418e-4	0.0732482	243.821	10.0001	2.64215	1308.86	93.86	95.1133	8.93411e-5
2.69276e-4	0.0687693	255.386	10.0001	2.48855	1315.62	94.02	95.4705	8.95774e-5
2.90873e-4	0.0647900	222.743	10.0001	2.34327	1322.31	94.25	95.7858	8.94823e-5
2.13954e-4	0.0608337	284.331	10.0001	2.20430	1329.00	94.51	96.2313	8.95781e-5
2.10148e-4	0.0574824	273.533	10.0001	2.07999	1335.92	94.73	96.5951	8.93853e-5
1.82356e-4	0.0541028	296.688	10.0001	1.96222	1342.79	94.99	97.0324	8.95101e-5
1.33474e-4	0.0507253	380.040	10.0001	1.84415	1349.52	95.20	97.5500	8.96220e-5
1.01990e-4	0.0474271	465.015	10.0001	1.72775	1356.39	95.43	98.1061	8.96873e-5
1.15000e-4	0.0443796	385.908	10.0001	1.61888	1363.21	95.65	98.6380	8.96795e-5
1.16472e-4	0.0418348	359.182	10.0001	1.52457	1369.91	95.87	99.1530	8.94665e-5
1.34801e-4	0.0397037	294.536	10.0001	1.44522	1376.06	96.06	99.6106	8.92528e-5
7.82634e-5	0.0371899	475.189	10.0001	1.36254	1382.86	96.29	100.331	8.96322e-5
7.61232e-5	0.0347638	456.678	10.0001	1.27736	1389.67	96.55	101.038	8.96834e-5
5.21017e-5	0.0325262	624.284	10.0001	1.19829	1396.39	96.70	101.819	8.96786e-5
6.64580e-5	0.0306492	461.182	10.0001	1.12879	1403.08	96.94	102.494	8.94190e-5
5.72595e-5	0.0289927	506.338	10.0001	1.06962	1409.75	97.18	103.201	8.93230e-5
4.53668e-5	0.0272991	601.742	10.0001	1.01218	1416.64	97.42	104.013	8.94637e-5
3.56375e-5	0.0256999	721.146	10.0001	0.956466	1423.45	97.69	104.867	8.94531e-5
3.86284e-5	0.0240441	622.446	10.0001	0.900784	1430.20	97.88	105.835	8.96290e-5
3.11582e-5	0.0225885	724.962	10.0001	0.849755	1437.08	98.10	106.817	8.95507e-5
1.89774e-5	0.0212011	1117.17	10.0001	0.802062	1443.92	98.32	107.880	8.95375e-5
1.15485e-5	0.0198384	1717.82	10.0001	0.756123	1450.75	98.56	109.041	8.95987e-5
-2.30566e-5	0.0187659	-813.904	10.0001	0.717983	1456.85	98.76	110.138	8.93293e-5
2.50633e-5	0.0176388	703.767	10.0001	0.680359	1463.57	99.03	111.177	8.94446e-5
2.32156e-5	0.0165371	712.325	10.0001	0.644549	1470.29	99.19	112.457	8.95780e-5
1.65756e-5	0.0155602	938.742	10.0001	0.611584	1476.96	99.39	113.736	8.94800e-5
3.08138e-5	0.0147709	479.359	10.0001	0.583961	1483.72	99.65	114.809	8.92444e-5
1.14824e-5	0.0139976	1219.05	10.0001	0.559246	1490.33	99.88	116.067	8.92547e-5
2.62752e-5	0.0132149	502.942	10.0001	0.534507	1497.12	100.09	117.340	8.93516e-5
5.51379e-6	0.0124223	2252.96	10.0001	0.510230	1504.06	100.33	118.883	8.94329e-5
1.42475e-5	0.0118109	828.983	10.0001	0.488802	1510.89	100.57	120.090	8.90439e-5
-2.33641e-5	0.0111808	-478.548	10.0001	0.470387	1517.60	100.79	121.613	8.90999e-5
1.28724e-6	0.0105179	8170.90	10.0001	0.449919	1524.48	101.02	123.103	8.91116e-5
5.86643e-6	9.96653e-3	1698.91	10.0001	0.432355	1531.36	101.22	124.511	8.88942e-5
1.16131e-5	9.51556e-3	819.383	10.0001	0.418101	1538.15	101.48	125.737	8.86940e-5
-1.05282e-5	8.96582e-3	-851.599	10.0001	0.403937	1544.95	101.70	127.456	8.89362e-5
-1.86216e-5	8.45422e-3	-454.001	10.0001	0.389338	1551.70	101.92	129.126	8.88410e-5
-9.57966e-6	8.00938e-3	-836.082	10.0001	0.376100	1558.64	102.15	130.615	8.86490e-5
2.41322e-5	7.59876e-3	314.880	10.0001	0.363818	1565.48	102.39	131.966	8.85228e-5
-7.28513e-6	7.19689e-3	-987.887	10.0001	0.353981	1572.30	102.58	133.651	8.85009e-5
-1.08776e-5	6.80147e-3	-625.276	10.0001	0.344273	1579.23	102.84	135.285	8.85646e-5
9.86966e-6	6.44686e-3	653.200	10.0001	0.334452	1586.06	103.08	136.733	8.84308e-5
-2.03099e-5	6.08518e-3	-299.616	10.0001	0.327108	1592.85	103.28	138.505	8.85751e-5
-9.20951e-7	5.77334e-3	-6268.89	10.0001	0.318366	1599.06	103.47	139.914	8.83057e-5
-4.01898e-5	5.47885e-3	-136.325	10.0001	0.313146	1605.91	103.72	141.544	8.83960e-5
2.83113e-5	5.21200e-3	184.096	10.0001	0.304292	1612.05	103.94	142.654	8.80758e-5
-1.14820e-6	4.97891e-3	-4336.26	10.0001	0.300673	1618.73	104.15	144.025	8.82126e-5
-9.92227e-6	4.70931e-3	-474.620	10.0001	0.295621	1625.63	104.39	145.563	8.82759e-5
1.80179e-5	4.47402e-3	248.309	10.0001	0.289592	1632.51	104.61	146.813	8.81065e-5
-1.61436e-5	4.26937e-3	-264.462	10.0001	0.286758	1638.66	104.78	148.159	8.81202e-5
1.03595e-5	4.07003e-3	392.878	10.0001	0.282229	1645.49	105.05	149.276	8.81016e-5
-1.59778e-5	3.85372e-3	-241.193	10.0001	0.279488	1652.23	105.28	150.726	8.81908e-5
-1.71031e-5	3.67394e-3	-214.812	10.0001	0.275943	1659.13	105.51	151.883	8.80264e-5
4.28389e-6	3.50950e-3	819.231	10.0001	0.272271	1665.95	105.71	152.888	8.79288e-5
-2.72629e-5	3.31599e-3	-121.630	10.0001	0.270940	1672.81	105.94	154.286	8.81602e-5
5.41654e-6	3.16898e-3	585.057	10.0001	0.266780	1679.68	106.19	155.183	8.78676e-5
-1.90796e-6	3.02832e-3	-1587.20	10.0001	0.265121	1686.44	106.37	156.183	8.79182e-5
-6.59777e-6	2.86874e-3	-434.804	10.0001	0.263093	1693.35	106.65	157.322	8.79338e-5
-6.67603e-6	2.73370e-3	-409.481	10.0001	0.261220	1699.45	106.83	158.288	8.79096e-5
-1.18151e-5	2.60940e-3	-220.854	10.0001	0.259738	1705.82	107.08	159.204	8.78902e-5
1.10459e-5	2.45874e-3	222.592	10.0001	0.257146	1712.65	107.31	160.247	8.78928e-5
-6.64488e-6	2.35590e-3	-354.543	10.0001	0.256122	1719.53	107.54	161.060	8.77531e-5
-2.39217e-5	2.23569e-3	-93.4586	10.0001	0.255841	1726.41	107.74	162.004	8.79194e-5
9.40825e-6	2.11253e-3	224.540	10.0001	0.253070	1733.17	107.99	162.857	8.78036e-5
-2.66870e-5	2.02098e-3	-75.7292	10.0001	0.253602	1740.13	108.18	163.643	8.78888e-5
-1.23147e-5	1.93793e-3	-157.367	10.0001	0.251914	1746.92	108.40	164.249	8.77531e-5
-2.23481e-5	1.86606e-3	-83.4998	10.0001	0.251495	1753.65	108.60	164.828	8.77242e-5
5.51924e-6	1.78493e-3	323.402	10.0001	0.249786	1760.53	108.92	165.400	8.77149e-5
-1.43033e-5	1.70336e-3	-119.089	10.0001	0.249743	1767.37	109.07	166.080	8.77112e-5
-9.56927e-6	1.63146e-3	-170.489	10.0001	0.249000	1774.17	109.34	166.638	8.77174e-5
-6.76599e-6	1.55252e-3	-229.460	10.0001	0.248323	1781.07	109.57	167.258	8.77344e-5
-1.04628e-6	1.48980e-3	-1423.90	10.0001	0.247547	1787.27	109.75	167.747	8.76989e-5
1.39603e-5	1.42886e-3	102.352	10.0001	0.246677	1794.16	110.01	168.209	8.77327e-5
-2.53977e-5	1.33251e-3	-52.4655	10.0001	0.247842	1801.07	110.22	169.044	8.79007e-5

[step]
Temperature ramp - 3
Storage modulus	Loss modulus	Tan(delta)	Angular frequency	Oscillation torque	Step time	Temperature	Raw phase	Oscillation displacement
MPa	MPa		rad/s	µN.m	s	°C	°	rad
1.34326e-4	1.45671e-3	10.8446	10.0001	0.0698714	6.04575	109.72	167.777	2.52547e-5
5.17697e-5	1.51469e-3	29.2583	10.0001	0.0701060	12.8739	109.42	167.454	2.50012e-5
1.63218e-4	1.63742e-3	10.0321	10.0001	0.0687676	19.8115	109.08	166.258	2.48108e-5
7.90055e-5	1.77098e-3	22.4159	10.0001	0.0702492	26.5922	108.88	165.361	2.49317e-5
1.31103e-4	1.90393e-3	14.5223	10.0001	0.0697801	33.2822	108.69	164.198	2.48195e-5
1.79119e-4	1.98875e-3	11.1030	10.0001	0.0696818	39.9668	108.51	163.420	2.48645e-5
1.52056e-4	2.13096e-3	14.0143	10.0001	0.0704263	46.5616	108.25	162.372	2.48883e-5
1.57928e-4	2.23750e-3	14.1678	10.0001	0.0707353	53.5301	107.99	161.534	2.49005e-5
1.28235e-4	2.41617e-3	18.8417	10.0001	0.0714967	60.2893	107.77	160.252	2.48639e-5
1.30105e-4	2.60312e-3	20.0079	10.0001	0.0720589	67.0457	107.57	158.848	2.48385e-5
8.44351e-5	2.68181e-3	31.7617	10.0001	0.0730778	73.7580	107.31	158.402	2.49437e-5
5.23550e-5	2.85869e-3	54.6020	10.0001	0.0737839	80.5631	107.09	157.217	2.48555e-5
1.44570e-4	3.16681e-3	21.9051	10.0001	0.0735891	87.3704	106.86	154.749	2.46525e-5
6.82106e-5	3.14781e-3	46.1484	10.0001	0.0753720	94.2489	106.69	155.129	2.50434e-5
1.93514e-4	3.39415e-3	17.5395	10.0001	0.0743277	101.077	106.45	153.012	2.47127e-5
9.78722e-5	3.66560e-3	37.4530	10.0001	0.0768062	107.915	106.19	151.533	2.48362e-5
9.61861e-5	3.78714e-3	39.3731	10.0001	0.0775281	114.829	105.97	150.751	2.48755e-5
8.62043e-5	3.99284e-3	46.3183	10.0001	0.0785801	121.547	105.72	149.480	2.48570e-5
1.37302e-4	4.18864e-3	30.5069	10.0001	0.0789663	128.371	105.52	148.069	2.47960e-5
1.07255e-4	4.42759e-3	41.2810	10.0001	0.0805670	135.330	105.22	146.746	2.48168e-5
4.19126e-5	4.74156e-3	113.130	10.0001	0.0827000	142.197	105.05	145.178	2.47678e-5
1.42140e-4	4.96984e-3	34.9643	10.0001	0.0831283	148.907	104.83	143.501	2.47422e-5
1.64130e-4	5.26682e-3	32.0893	10.0001	0.0846409	155.290	104.62	141.807	2.47112e-5
-4.58277e-5	5.37982e-3	-117.392	10.0001	0.0882354	161.358	104.43	142.078	2.50701e-5
2.62230e-5	5.93640e-3	226.381	10.0001	0.0892221	168.108	104.19	139.014	2.45145e-5
-2.11291e-6	6.15351e-3	-2912.34	10.0001	0.0920424	175.037	103.96	138.111	2.48367e-5
2.11684e-5	6.44692e-3	304.554	10.0001	0.0935079	181.843	103.74	136.684	2.47448e-5
7.56373e-6	6.83907e-3	904.193	10.0001	0.0961230	188.577	103.47	135.053	2.46948e-5
2.11843e-4	7.35748e-3	34.7308	10.0001	0.0975764	195.520	103.24	132.097	2.44740e-5
-2.80854e-5	7.69877e-3	-274.120	10.0001	0.103327	202.358	103.08	131.813	2.48760e-5
-5.25219e-5	8.02421e-3	-152.779	10.0001	0.105487	209.174	102.83	130.737	2.47708e-5
6.68376e-5	8.48885e-3	127.007	10.0001	0.107477	215.990	102.64	128.663	2.45854e-5
1.39242e-4	9.02372e-3	64.8058	10.0001	0.110985	222.792	102.34	126.673	2.45321e-5
4.43227e-5	9.49079e-3	214.129	10.0001	0.116083	229.030	102.15	125.679	2.47088e-5
9.03468e-5	0.0101590	112.444	10.0001	0.120334	235.616	101.94	123.674	2.45156e-5
5.78838e-5	0.0106504	183.996	10.0001	0.125324	242.593	101.73	122.560	2.46635e-5
6.93600e-5	0.0111174	160.286	10.0001	0.129118	249.310	101.56	121.410	2.46480e-5
8.54991e-5	0.0117185	137.059	10.0001	0.133713	256.175	101.26	120.027	2.45677e-5
-2.86333e-5	0.0124711	-435.546	10.0001	0.140456	263.021	101.02	118.910	2.45182e-5
1.56749e-4	0.0132815	84.7312	10.0001	0.145848	269.874	100.82	116.776	2.43811e-5
4.40791e-5	0.0139406	316.263	10.0001	0.153510	276.079	100.61	116.051	2.46027e-5
1.01074e-4	0.0150063	148.468	10.0001	0.160716	282.907	100.39	114.243	2.42857e-5
5.95355e-5	0.0158027	265.433	10.0001	0.169557	289.627	100.13	113.280	2.45113e-5
8.09827e-5	0.0166939	206.142	10.0001	0.177291	296.314	99.92	112.098	2.44727e-5
1.52442e-4	0.0176433	115.738	10.0001	0.185558	303.048	99.69	110.812	2.44491e-5
-1.20107e-6	0.0188065	-15658.1	10.0001	0.196740	309.955	99.51	110.039	2.44406e-5
1.45736e-4	0.0200091	137.297	10.0001	0.206766	316.664	99.24	108.545	2.43624e-5
5.99011e-5	0.0210939	352.145	10.0001	0.218425	323.397	99.00	107.865	2.45106e-5
1.31755e-4	0.0228001	173.050	10.0001	0.231604	330.199	98.78	106.439	2.42308e-5
5.47950e-5	0.0240269	438.487	10.0001	0.246131	337.017	98.55	105.810	2.45110e-5
9.64903e-5	0.0254629	263.891	10.0001	0.258977	343.829	98.35	104.872	2.44465e-5
3.39475e-5	0.0270465	796.716	10.0001	0.274138	350.626	98.09	104.162	2.44423e-5
1.31234e-4	0.0284443	216.745	10.0001	0.287776	357.525	97.89	103.306	2.44847e-5
1.33648e-4	0.0300889	225.135	10.0001	0.303187	364.373	97.64	102.598	2.44554e-5
1.55131e-4	0.0318023	205.003	10.0001	0.319766	370.534	97.44	101.901	2.44663e-5
9.33413e-5	0.0337467	361.541	10.0001	0.338285	377.242	97.20	101.336	2.44441e-5
1.31428e-4	0.0358179	272.528	10.0001	0.357945	384.069	97.00	100.636	2.44262e-5
7.13773e-5	0.0379515	531.703	10.0001	0.379109	390.930	96.78	100.139	2.44554e-5
2.01167e-4	0.0407207	202.423	10.0001	0.403013	397.705	96.52	99.2838	2.42902e-5
7.88829e-5	0.0435098	551.575	10.0001	0.431719	404.591	96.32	98.8557	2.43829e-5
1.41047e-4	0.0462606	327.981	10.0001	0.458482	411.425	96.09	98.2611	2.43925e-5
5.59837e-5	0.0493428	881.379	10.0001	0.488682	418.136	95.84	97.8475	2.43977e-5
1.58530e-4	0.0523547	330.250	10.0001	0.518195	424.729	95.66	97.2908	2.44150e-5
2.69207e-4	0.0558470	207.450	10.0001	0.550820	431.695	95.39	96.7276	2.43601e-5
2.21385e-4	0.0597535	269.908	10.0001	0.588615	438.499	95.16	96.3366	2.43493e-5
2.08051e-4	0.0636085	305.736	10.0001	0.627439	445.249	95.00	95.9669	2.43990e-5
2.62582e-4	0.0679859	258.913	10.0001	0.668776	451.970	94.72	95.5393	2.43498e-5
1.44432e-4	0.0727980	504.029	10.0001	0.715952	458.682	94.50	95.2670	2.43550e-5
3.55202e-4	0.0772611	217.513	10.0001	0.760664	465.642	94.32	94.8087	2.43980e-5
3.50945e-4	0.0823811	234.741	10.0001	0.810000	472.311	94.07	94.5138	2.43762e-5
3.17074e-4	0.0880085	277.565	10.0001	0.864488	478.894	93.84	94.2478	2.43611e-5
3.68587e-4	0.0934076	253.421	10.0001	0.919232	485.143	93.62	93.9713	2.44152e-5
4.64230e-4	0.0995358	214.411	10.0001	0.977624	492.020	93.39	93.6721	2.43752e-5
5.12755e-4	0.106015	206.755	10.0001	1.04120	498.938	93.15	93.4219	2.43822e-5
6.23044e-4	0.112970	181.319	10.0001	1.10877	505.764	92.97	93.1552	2.43705e-5
7.30585e-4	0.121349	166.098	10.0001	1.18684	512.626	92.74	92.8865	2.42913e-5
6.56175e-4	0.129162	196.840	10.0001	1.26862	518.775	92.56	92.7445	2.43972e-5
7.37298e-4	0.138461	187.796	10.0001	1.35508	525.743	92.26	92.5265	2.43158e-5
7.66644e-4	0.147726	192.692	10.0001	1.44821	532.421	92.03	92.3561	2.43593e-5
9.78377e-4	0.157323	160.800	10.0001	1.54257	539.065	91.80	92.1348	2.43676e-5
1.17717e-3	0.168403	143.057	10.0001	1.64722	545.912	91.59	91.9262	2.43119e-5
1.20196e-3	0.179224	149.110	10.0001	1.75809	552.161	91.39	91.8011	2.43815e-5
1.44389e-3	0.192160	133.085	10.0001	1.87814	558.997	91.20	91.6070	2.42965e-5
1.55792e-3	0.206765	132.718	10.0001	2.01830	565.826	90.93	91.4608	2.42657e-5
1.51246e-3	0.221468	146.429	10.0001	2.16605	572.451	90.71	91.3746	2.43149e-5
1.81139e-3	0.237315	131.013	10.0001	2.31900	579.360	90.51	91.2096	2.42956e-5
2.26276e-3	0.254704	112.564	10.0001	2.48578	586.046	90.27	91.0243	2.42656e-5
2.44155e-3	0.273460	112.003	10.0001	2.66974	592.983	89.99	90.9155	2.42785e-5
2.70549e-3	0.295858	109.355	10.0001	2.87811	599.825	89.79	90.7934	2.41910e-5
3.29332e-3	0.322599	97.9557	10.0001	3.12578	606.543	89.56	90.6213	2.40951e-5
3.98500e-3	0.345231	86.6326	10.0001	3.37122	613.449	89.40	90.4642	2.42834e-5
4.09668e-3	0.369084	90.0935	10.0001	3.60800	620.280	89.10	90.4152	2.43112e-5
4.50800e-3	0.396375	87.9271	10.0001	3.86530	627.108	88.88	90.3253	2.42527e-5
5.14403e-3	0.423579	82.3439	10.0001	4.13752	633.775	88.67	90.2164	2.42932e-5
5.95257e-3	0.456971	76.7687	10.0001	4.44428	640.570	88.44	90.0968	2.41872e-5
7.51842e-3	0.501851	66.7495	10.0001	4.83820	647.422	88.25	89.9062	2.39749e-5
8.61997e-3	0.561932	65.1896	10.0001	5.37035	654.320	87.96	89.7997	2.37660e-5
9.04731e-3	0.592729	65.5144	10.0001	5.82117	661.038	87.78	89.7666	2.44233e-5
0.0103102	0.628420	60.9514	10.0001	6.15274	667.911	87.57	89.6622	2.43491e-5
0.0110931	0.670149	60.4113	10.0001	6.54591	674.707	87.32	89.6133	2.42929e-5
0.0128703	0.728694	56.6181	10.0001	7.04987	681.556	87.07	89.5005	2.40603e-5
0.0139902	0.785944	56.1783	10.0001	7.63429	688.388	86.86	89.4512	2.41556e-5
0.0171000	0.862100	50.4152	10.0001	8.29638	695.277	86.61	89.2876	2.39315e-5
0.0191787	0.924090	48.1832	10.0001	8.99216	702.077	86.41	89.2021	2.41985e-5
0.0212377	0.992557	46.7357	10.0001	9.64857	708.916	86.18	89.1334	2.41716e-5
0.0238452	1.08349	45.4385	10.0001	10.4474	715.770	85.94	89.0619	2.39763e-5
0.0278967	1.16242	41.6688	10.0001	11.2918	722.601	85.74	88.9203	2.41544e-5
0.0314789	1.24669	39.6041	10.0001	12.1124	729.357	85.54	88.8227	2.41586e-5
0.0342501	1.33955	39.1107	10.0001	13.0055	736.223	85.25	88.7792	2.41411e-5
0.0384226	1.43613	37.3772	10.0001	13.9488	743.030	85.06	88.6880	2.41490e-5
0.0436701	1.55129	35.5229	10.0001	15.0032	749.945	84.80	88.5835	2.40461e-5
0.0516262	1.69623	32.8560	10.0001	16.2871	756.795	84.58	88.4257	2.38709e-5
0.0573300	1.83379	31.9865	10.0001	17.7167	763.636	84.36	88.3559	2.40185e-5
0.0643097	1.98211	30.8213	10.0001	19.1404	770.427	84.12	88.2667	2.40060e-5
0.0738868	2.12812	28.8024	10.0001	20.6033	776.499	83.90	88.1176	2.40671e-5
0.0821931	2.28898	27.8488	10.0001	22.1428	783.201	83.69	88.0306	2.40470e-5
0.0960258	2.47538	25.7783	10.0001	23.8466	790.104	83.45	87.8458	2.39436e-5
0.105490	2.67320	25.3408	10.0001	25.7863	796.840	83.23	87.7884	2.39763e-5
0.120499	2.89449	24.0208	10.0001	27.8483	803.761	83.04	87.6450	2.39094e-5
0.140095	3.14209	22.4283	10.0001	30.1584	810.502	82.77	87.4561	2.38513e-5
0.161424	3.42364	21.2089	10.0001	32.7785	817.373	82.56	87.2889	2.37886e-5
0.180916	3.71392	20.5284	10.0001	35.6461	824.051	82.39	87.1798	2.38444e-5
0.205929	4.01725	19.5079	10.0001	38.5859	830.744	82.13	87.0150	2.38596e-5
0.242444	4.38870	18.1019	10.0001	41.8482	837.539	81.87	86.7656	2.36827e-5
0.279434	4.78861	17.1368	10.0001	45.6833	844.288	81.63	86.5657	2.36913e-5
0.312017	5.15911	16.5347	10.0001	49.6007	851.130	81.42	86.4248	2.38731e-5
0.358751	5.56557	15.5137	10.0001	53.3971	857.371	81.22	86.1771	2.38177e-5
0.411556	6.02510	14.6398	10.0001	57.6553	864.255	81.01	85.9353	2.37513e-5
0.477723	6.57843	13.7704	10.0001	62.5587	871.056	80.78	85.6635	2.35980e-5
0.539323	7.11027	13.1837	10.0001	68.0604	877.831	80.60	85.4553	2.37461e-5
0.621142	7.71315	12.4177	10.0001	73.5736	884.733	80.27	85.1623	2.36575e-5
0.726364	8.41902	11.5906	10.0001	79.9013	891.608	80.08	84.8051	2.35289e-5
0.823877	9.08145	11.0228	10.0001	86.8960	898.344	79.85	84.5246	2.37135e-5
0.937642	9.85672	10.5122	10.0001	93.8818	905.227	79.62	84.2424	2.35969e-5
1.06919	10.6220	9.93468	10.0001	101.600	911.427	79.43	83.8974	2.36842e-5
1.25638	11.6610	9.28139	10.0001	109.988	918.439	79.17	83.4544	2.33436e-5
1.46258	12.6982	8.68202	10.0001	120.418	925.202	78.93	82.9925	2.34532e-5
1.68205	13.7887	8.19751	10.0001	131.048	932.056	78.76	82.5653	2.34885e-5
1.91584	14.9166	7.78593	10.0001	142.174	938.906	78.51	82.1579	2.35415e-5
2.18934	16.1154	7.36086	10.0001	153.708	945.655	78.26	81.6943	2.35405e-5
2.52680	17.4415	6.90260	10.0001	165.968	952.594	78.03	81.1370	2.34619e-5
2.91793	18.9516	6.49488	10.0001	179.665	959.370	77.84	80.5701	2.33490e-5
3.38180	20.7129	6.12481	10.0001	195.325	966.293	77.58	79.9838	2.31988e-5
3.92466	22.6309	5.76633	10.0001	213.312	973.029	77.41	79.3464	2.31583e-5
4.56610	24.5951	5.38646	10.0001	232.733	979.843	77.15	78.5943	2.32087e-5
5.19417	26.4907	5.10008	10.0001	252.871	986.509	76.94	77.9476	2.33777e-5
5.91525	28.4938	4.81700	10.0001	272.456	993.307	76.71	77.2391	2.33771e-5
6.72323	30.7927	4.58005	10.0001	293.600	1000.22	76.45	76.5655	2.32720e-5
7.72119	33.3169	4.31499	10.0001	317.499	1007.08	76.20	75.7414	2.32097e-5
8.80040	35.8216	4.07045	10.0001	343.847	1013.86	76.01	74.8949	2.33211e-5
10.0338	38.6267	3.84964	10.0001	370.545	1020.61	75.83	74.0334	2.32465e-5
11.4762	41.8151	3.64362	10.0001	400.526	1027.42	75.53	73.1319	2.31504e-5
13.0720	45.0281	3.44463	10.0001	434.351	1034.06	75.33	72.1741	2.32419e-5
14.9448	48.4574	3.24243	10.0001	468.913	1040.90	75.12	71.0983	2.32287e-5
17.5182	53.0434	3.02791	10.0001	506.833	1047.64	74.88	69.7974	2.28303e-5
19.6881	56.8019	2.88509	10.0001	556.693	1054.42	74.65	68.8226	2.33368e-5
22.5882	61.2205	2.71029	10.0001	598.105	1061.20	74.43	67.5301	2.31440e-5
26.1378	66.4584	2.54261	10.0001	648.084	1068.17	74.17	66.1279	2.29711e-5
29.3909	71.0406	2.41709	10.0001	707.088	1075.00	73.99	64.9604	2.33287e-5
32.7341	75.3524	2.30195	10.0001	759.197	1081.81	73.75	63.8053	2.34934e-5
36.7472	80.2613	2.18415	10.0001	809.534	1088.61	73.53	62.5157	2.33754e-5
41.1516	85.4086	2.07547	10.0001	867.427	1095.50	73.28	61.2138	2.33904e-5
46.3030	91.1348	1.96823	10.0001	928.928	1102.22	73.07	59.8108	2.33106e-5
51.1861	96.0726	1.87693	10.0001	997.724	1108.47	72.88	58.5305	2.35855e-5
56.9404	101.677	1.78568	10.0001	1059.18	1115.28	72.60	57.1430	2.34799e-5
62.9433	107.183	1.70284	10.0001	1129.45	1122.13	72.40	55.7873	2.35650e-5
69.4478	112.914	1.62588	10.0001	1199.94	1129.00	72.14	54.4312	2.35757e-5
76.7471	118.763	1.54746	10.0001	1274.19	1135.89	71.93	52.9662	2.35782e-5
84.9849	124.915	1.46985	10.0001	1352.75	1142.62	71.73	51.4155	2.35531e-5
93.8259	131.364	1.40008	10.0001	1437.78	1149.53	71.47	49.9085	2.35607e-5
103.039	137.297	1.33247	10.0001	1527.28	1156.17	71.26	48.3784	2.36733e-5
112.572	143.128	1.27144	10.0001	1614.55	1163.10	71.06	46.9087	2.37352e-5
121.953	148.581	1.21835	10.0001	1702.29	1169.89	70.82	45.5576	2.38451e-5
131.993	154.072	1.16727	10.0001	1786.45	1176.77	70.60	44.1945	2.38577e-5
143.664	159.661	1.11135	10.0001	1873.81	1183.61	70.36	42.6482	2.38059e-5
155.545	165.185	1.06198	10.0001	1969.57	1190.42	70.14	41.2047	2.38583e-5
166.310	169.735	1.02059	10.0001	2065.33	1196.53	69.90	39.9513	2.40443e-5
178.667	174.736	0.978000	10.0001	2149.28	1203.50	69.68	38.6064	2.39687e-5
191.559	179.127	0.935101	10.0001	2243.55	1210.24	69.44	37.2218	2.40211e-5
205.006	183.589	0.895531	10.0001	2336.66	1216.81	69.27	35.8888	2.40308e-5
219.628	187.844	0.855283	10.0001	2432.69	1223.70	69.01	34.4962	2.40259e-5
233.674	191.567	0.819805	10.0001	2533.10	1230.45	68.78	33.2305	2.41204e-5
248.048	195.078	0.786452	10.0001	2627.22	1237.15	68.54	32.0069	2.41496e-5
263.138	197.885	0.752020	10.0001	2721.48	1244.02	68.34	30.7307	2.41789e-5
278.430	200.498	0.720102	10.0001	2815.59	1250.80	68.12	29.5150	2.42068e-5
294.604	203.083	0.689343	10.0001	2909.54	1257.52	67.91	28.3126	2.41997e-5
309.835	204.978	0.661572	10.0001	3007.40	1264.46	67.63	27.2132	2.42912e-5
324.062	206.414	0.636960	10.0001	3096.68	1270.60	67.47	26.2247	2.43677e-5
339.653	207.679	0.611445	10.0001	3178.45	1277.31	67.20	25.1863	2.43388e-5
355.468	208.433	0.586363	10.0001	3266.35	1284.19	66.98	24.1574	2.43643e-5
372.158	208.755	0.560932	10.0001	3353.01	1291.00	66.78	23.1055	2.43632e-5
388.786	209.029	0.537644	10.0001	3442.34	1297.80	66.52	22.1249	2.43854e-5
404.880	208.882	0.515910	10.0001	3530.67	1304.61	66.30	21.2045	2.44317e-5
421.391	208.265	0.494233	10.0001	3614.42	1311.39	66.10	20.2831	2.44429e-5
437.139	207.356	0.474347	10.0001	3698.34	1318.37	65.85	19.4332	2.44882e-5
453.353	205.956	0.454294	10.0001	3777.07	1325.14	65.61	18.5753	2.44952e-5
468.246	205.085	0.437987	10.0001	3850.66	1331.88	65.39	17.8632	2.45024e-5
-16.7731	-55.0036	3.27927	10.0001	3934.64	1338.82	65.19	255.083	1.68427e-4
437.901	116.683	0.266461	10.0001	551.362	1345.66	64.97	11.5685	3.88472e-6
100.205	-19.8690	-0.198285	10.0001	3568.00	1352.50	64.70	-10.5281	9.24705e-5
-6.67572	13.6661	-2.04713	10.0001	1033.52	1359.33	64.46	115.552	1.68239e-4
183.882	176.737	0.961144	10.0001	131.138	1366.02	64.30	38.0598	1.43728e-6
36.7823	30.9317	0.840939	10.0001	2297.31	1372.94	64.02	38.9533	1.21719e-4
627.177	217.563	0.346892	10.0001	534.970	1379.72	63.86	13.4360	2.82675e-6
-12.9000	55.8742	-4.33134	10.0001	4723.52	1386.66	63.61	100.931	2.03265e-4
-6.68875	4.04485	-0.604723	10.0001	564.061	1393.40	63.37	148.714	1.78551e-4
-383.182	246.598	-0.643553	10.0001	47.6919	1400.25	63.16	135.345	2.00399e-7
-9.87798	135.767	-13.7444	10.0001	5808.14	1407.18	62.91	89.1402	1.05837e-4
259.201	129.700	0.500382	10.0001	1334.59	1413.88	62.68	22.4923	1.33948e-5
-8.11123	-30.6516	3.77891	10.0001	2519.80	1420.73	62.46	256.302	1.96626e-4
1468.33	74.4377	0.0506954	10.0001	320.465	1427.65	62.20	1.49144	1.05449e-6
241.093	-14.3849	-0.0596652	10.0001	7549.53	1434.45	62.00	-2.95555	8.97960e-5
17.1604	-21.0656	-1.22757	10.0001	2159.31	1441.37	61.77	-50.0762	1.99862e-4
786.057	499.804	0.635836	10.0001	333.492	1448.19	61.56	20.3948	1.37084e-6
128.452	142.454	1.10901	10.0001	6039.24	1454.91	61.28	43.1216	8.50771e-5
725.239	121.306	0.167263	10.0001	1807.72	1461.85	61.06	6.44957	8.97946e-6
65.6407	-71.4754	-1.08889	10.0001	5022.43	1468.58	60.87	-44.9131	1.34274e-4
802.667	1055.76	1.31532	10.0001	992.470	1475.47	60.63	28.6261	3.09226e-6
703.800	146.259	0.207813	10.0001	7962.34	1482.31	60.42	8.03391	4.01040e-5
-59.2154	22.7257	-0.383780	10.0001	4961.46	1489.19	60.14	158.136	1.87119e-4
476.305	140.189	0.294326	10.0001	569.248	1496.03	59.92	12.4514	3.73385e-6
21.0875	-50.0191	-2.37198	10.0001	3824.60	1502.76	59.72	-65.3283	1.77693e-4
8.58823	3.76485	0.438374	10.0001	570.444	1509.04	59.47	23.5502	1.52229e-4
530.784	137.790	0.259596	10.0001	155.943	1515.95	59.29	10.7718	9.50763e-7
612.884	64.1756	0.104711	10.0001	4106.09	1522.80	59.06	4.28160	2.31150e-5
-49.4835	45.6836	-0.923210	10.0001	4469.16	1529.61	58.83	135.552	1.59836e-4
404.305	86.7616	0.214595	10.0001	636.052	1536.44	58.61	9.57544	4.82508e-6
-5.97031	-85.0419	14.2441	10.0001	3322.43	1542.73	58.41	269.123	9.66949e-5
711.440	31.5299	0.0443184	10.0001	848.004	1549.47	58.15	1.74037	4.31743e-6
767.283	112.593	0.146742	10.0001	4915.86	1556.34	57.92	5.57161	2.35742e-5
48.3373	-106.025	-2.19344	10.0001	5215.71	1563.14	57.70	-61.7096	1.15031e-4
20.3787	3.05922	0.150119	10.0001	1156.73	1569.40	57.50	8.42895	1.41470e-4
806.547	-268.565	-0.332981	10.0001	279.469	1576.25	57.25	-11.9270	1.24984e-6
67.3723	-14.3877	-0.213555	10.0001	5581.00	1583.17	57.03	-11.5476	2.10235e-4
588.462	131.632	0.223688	10.0001	723.169	1589.97	56.79	9.09350	4.11928e-6
5.82125	94.1240	16.1690	10.0001	4385.55	1596.74	56.59	83.0128	1.16303e-4
522.253	-10.4994	-0.0201040	10.0001	937.067	1603.58	56.35	-0.862041	5.96046e-6
-72.9838	56.9663	-0.780533	10.0001	3969.62	1610.39	56.12	139.827	1.01689e-4
-6.68107	-10.8526	1.62438	10.0001	906.248	1617.26	55.87	238.758	1.76034e-4
462.123	566.768	1.22644	10.0001	104.555	1624.06	55.65	35.1085	4.79154e-7
796.044	100.629	0.126411	10.0001	5441.04	1630.90	55.39	4.75303	2.55241e-5
-52.2641	90.5084	-1.73175	10.0001	5321.24	1637.66	55.18	116.559	1.22580e-4
727.857	149.660	0.205617	10.0001	1034.20	1644.54	54.99	7.86720	5.09298e-6
822.158	120.246	0.146257	10.0001	5091.44	1651.22	54.76	5.42444	2.33301e-5
-54.5570	41.2120	-0.755394	10.0001	5452.04	1658.15	54.53	141.362	1.91415e-4
349.791	284.439	0.813168	10.0001	644.387	1664.89	54.28	30.6214	4.40289e-6
790.119	74.7747	0.0946373	10.0001	3665.98	1671.87	54.04	3.57944	1.73357e-5
806.217	53.4130	0.0662513	10.0001	5282.33	1678.61	53.83	2.49413	2.46975e-5
-77.1455	18.7191	-0.242646	10.0001	5346.84	1685.43	53.64	165.636	1.59177e-4
11.6990	-6.90597	-0.590306	10.0001	737.761	1692.04	53.42	-30.3156	1.36127e-4
358.379	73.7971	0.205920	10.0001	190.865	1698.95	53.21	9.42625	1.59751e-6
-21.6535	-76.0762	3.51335	10.0001	3034.46	1705.74	52.95	256.949	9.41926e-5
664.244	24.2898	0.0365676	10.0001	770.008	1712.58	52.72	1.46699	4.11253e-6
50.1687	-16.1228	-0.321373	10.0001	4695.92	1719.39	52.49	-17.2426	2.28815e-4
647.145	9.74983	0.0150659	10.0001	578.558	1726.20	52.27	0.609406	3.14874e-6
817.447	62.6874	0.0766868	10.0001	4602.39	1733.04	52.06	2.87115	2.13090e-5
820.050	77.7475	0.0948081	10.0001	5397.78	1739.86	51.79	3.54054	2.49083e-5
837.642	73.3014	0.0875091	10.0001	5419.33	1746.83	51.59	3.24584	2.46770e-5
-65.2644	105.812	-1.62128	10.0001	5487.18	1753.65	51.35	117.604	1.05422e-4
-16.6983	-3.08337	0.184651	10.0001	1248.93	1760.48	51.10	190.573	1.80871e-4
0.965486	1.67332	1.73314	10.0001	84.9693	1767.25	50.88	60.1305	1.09644e-4
987.824	21.6846	0.0219519	10.0001	34.2070	1774.12	50.65	0.768835	1.40823e-7
829.397	80.8615	0.0974943	10.0001	6063.03	1780.28	50.47	3.62561	2.77656e-5
-100.708	-10.5730	0.104986	10.0001	5459.81	1786.98	50.24	186.410	1.25389e-4
999.264	54.3177	0.0543577	10.0001	998.255	1793.86	50.02	1.89284	4.07649e-6
882.846	95.6198	0.108309	10.0001	6124.52	1800.70	49.81	3.93479	2.69153e-5

[step]
Temperature ramp - 4
Storage modulus	Loss modulus	Tan(delta)	Angular frequency	Oscillation torque	Step time	Temperature	Raw phase	Oscillation displacement
MPa	MPa		rad/s	µN.m	s	°C	°	rad
858.074	82.2839	0.0958937	10.0001	6812.05	6.13918	50.26	3.52389	3.05178e-5
-11.2952	115.734	-10.2463	10.0001	5566.83	12.9009	50.53	91.2877	1.18511e-4
1016.82	-17.4164	-0.0171283	10.0001	1169.63	19.6632	50.83	-0.593149	4.73109e-6
854.634	48.0409	0.0562123	10.0001	6178.52	26.4970	51.12	2.07479	2.78242e-5
863.214	80.6415	0.0934201	10.0001	5557.87	33.3100	51.34	3.42650	2.48093e-5
117.428	128.223	1.09193	10.0001	5605.59	40.1367	51.54	43.1315	8.64860e-5
837.449	125.184	0.149483	10.0001	1659.69	46.9086	51.73	5.50567	7.51096e-6
842.771	80.3984	0.0953977	10.0001	5523.06	53.7787	51.97	3.52839	2.50347e-5
23.3575	-127.829	-5.47274	10.0001	5534.57	60.6401	52.20	-75.0152	1.07855e-4
824.134	209.676	0.254420	10.0001	1279.24	67.4510	52.48	9.23632	5.74674e-6
-71.0357	7.94501	-0.111845	10.0001	5562.05	74.2682	52.65	173.312	1.84656e-4
0.378930	7.29969	19.2639	10.0001	653.764	80.9377	52.90	86.8131	2.22472e-4
-5822.06	2179.76	-0.374397	10.0001	95.2552	87.7190	53.11	6.52994	1.17485e-7
397.364	-43.0080	-0.108233	10.0001	20027.1	94.5107	53.33	-4.91495	1.56506e-4
45.2035	-32.1137	-0.710425	10.0001	3225.73	101.178	53.57	-34.2448	1.48917e-4
721.516	42.1892	0.0584730	10.0001	600.962	108.044	53.82	2.28438	3.02810e-6
818.759	109.853	0.134171	10.0001	4967.22	114.846	54.03	4.99139	2.28550e-5
84.7877	-33.5212	-0.395354	10.0001	5440.30	121.547	54.25	-20.4014	1.56514e-4
658.997	64.1963	0.0974151	10.0001	921.361	128.523	54.48	3.90253	4.92981e-6
813.719	82.9027	0.101881	10.0001	4680.96	135.254	54.70	3.81220	2.16960e-5
137.938	43.5284	0.315565	10.0001	5387.48	142.054	54.95	16.0411	1.00878e-4
838.258	164.979	0.196812	10.0001	1399.12	148.803	55.15	7.18960	6.28396e-6
811.312	74.8521	0.0922606	10.0001	5563.76	155.517	55.37	3.45884	2.58585e-5
824.838	79.2486	0.0960777	10.0001	5383.02	162.421	55.63	3.58024	2.47427e-5
802.497	81.1412	0.101111	10.0001	5430.21	169.288	55.82	3.80175	2.54012e-5
53.6879	16.0306	0.298589	10.0001	5343.88	176.092	56.08	16.0558	2.45393e-4
13.7254	-3.58183	-0.260964	10.0001	617.906	182.822	56.30	-14.5020	1.09334e-4
507.119	6.64605	0.0131055	10.0001	218.931	189.624	56.50	0.566134	1.42382e-6
807.388	86.1286	0.106676	10.0001	3865.37	196.558	56.77	4.00040	1.80000e-5
819.141	62.2797	0.0760305	10.0001	5371.55	203.291	56.98	2.84473	2.48386e-5
-30.2865	56.0360	-1.85019	10.0001	5404.11	210.133	57.21	116.290	2.06999e-4
553.727	438.563	0.792020	10.0001	619.385	216.886	57.41	26.6282	3.02096e-6
797.325	81.1420	0.101768	10.0001	5121.89	223.617	57.66	3.83467	2.40601e-5
112.546	71.7731	0.637724	10.0001	5326.76	230.470	57.85	30.0625	1.06526e-4
-20.6446	-9.48076	0.459238	10.0001	1311.19	237.312	58.10	205.013	1.41592e-4
-84.0992	-546.553	6.49891	10.0001	157.871	244.130	58.33	-78.3558	7.16477e-7
779.911	83.3943	0.106928	10.0001	5432.84	251.027	58.54	4.05726	2.58856e-5
44.4284	151.921	3.41945	10.0001	5262.81	257.933	58.84	68.2721	8.54245e-5
641.997	136.449	0.212538	10.0001	1553.63	264.701	59.07	8.44390	8.33398e-6
94.1977	12.9061	0.137011	10.0001	4670.39	271.545	59.28	7.35354	1.29563e-4
737.960	135.997	0.184288	10.0001	970.889	278.418	59.50	7.04652	4.75375e-6
50.7864	-72.8757	-1.43495	10.0001	5120.94	285.274	59.68	-52.5316	1.48207e-4
9.95001	4.29354	0.431511	10.0001	901.157	292.141	59.92	23.1978	2.08247e-4
423.038	-141.636	-0.334806	10.0001	166.293	298.929	60.14	-14.4141	1.18237e-6
751.418	151.954	0.202223	10.0001	3538.26	305.727	60.35	7.66192	1.70638e-5
-104.503	-0.126467	1.21017e-3	10.0001	5183.51	312.362	60.60	180.074	1.15055e-4
-7.90309	17.2846	-2.18706	10.0001	1020.84	319.091	60.85	113.950	1.32884e-4
3.05683	-2.00716	-0.656615	10.0001	177.910	326.013	61.05	-33.2747	1.21417e-4
807.784	148.340	0.183638	10.0001	64.9398	332.875	61.29	6.81226	2.99419e-7
674.486	150.235	0.222740	10.0001	5405.03	339.665	61.52	8.70077	2.79558e-5
717.309	156.745	0.218518	10.0001	4844.82	346.395	61.73	8.37925	2.40397e-5
22.8279	-57.7168	-2.52834	10.0001	5039.35	353.046	62.00	-66.3304	2.05023e-4
9.96480	1.55014	0.155561	10.0001	642.609	359.394	62.16	8.79136	1.59588e-4
579.240	271.593	0.468878	10.0001	166.665	366.218	62.39	17.8664	8.96486e-7
-55.4927	-44.3327	0.798891	10.0001	4652.99	372.360	62.61	220.312	1.57142e-4
555.901	190.257	0.342249	10.0001	660.698	379.081	62.80	13.7418	3.81212e-6
-85.0731	-11.2344	0.132056	10.0001	4340.39	385.939	63.05	187.960	1.18892e-4
634.746	147.619	0.232564	10.0001	813.142	392.722	63.34	9.23436	4.38014e-6
659.993	174.720	0.264730	10.0001	4656.88	399.583	63.53	10.3162	2.42407e-5
653.978	180.484	0.275978	10.0001	4797.68	406.497	63.71	10.7560	2.50698e-5
77.9672	27.4584	0.352179	10.0001	4791.59	413.324	63.99	18.4390	1.51417e-4
-15.7508	6.50245	-0.412834	10.0001	857.063	420.107	64.19	157.334	1.23769e-4
143.334	36.2129	0.252647	10.0001	95.1478	426.854	64.45	12.9574	1.74842e-6
467.455	142.020	0.303814	10.0001	1414.54	433.701	64.65	12.8815	9.38910e-6
-70.2638	27.9097	-0.397213	10.0001	3775.38	440.460	64.87	157.261	1.18578e-4
549.272	304.917	0.555129	10.0001	714.673	447.397	65.12	20.7888	3.86902e-6
17.3704	-97.1216	-5.59121	10.0001	4612.74	454.208	65.31	-76.3275	1.17791e-4
507.975	195.017	0.383911	10.0001	979.823	461.020	65.55	15.6006	5.96846e-6
473.689	231.302	0.488299	10.0001	4104.62	467.941	65.79	19.5198	2.54299e-5
463.036	227.730	0.491820	10.0001	4032.19	474.673	66.02	19.7483	2.53820e-5
456.059	224.141	0.491474	10.0001	3971.82	481.484	66.26	19.8111	2.52957e-5
49.2508	67.1929	1.36430	10.0001	3927.74	488.327	66.46	51.3638	1.21074e-4
413.373	201.427	0.487276	10.0001	850.570	495.122	66.71	20.1341	5.85377e-6
407.714	237.319	0.582071	10.0001	3636.17	501.839	66.90	23.3062	2.43737e-5
392.038	234.806	0.598938	10.0001	3724.69	508.603	67.17	24.0404	2.55667e-5
384.192	242.551	0.631328	10.0001	3640.24	515.320	67.39	25.1337	2.50435e-5
386.118	257.150	0.665989	10.0001	3634.58	522.013	67.60	26.1147	2.45372e-5
296.237	196.548	0.663484	10.0001	3685.38	528.706	67.81	27.5015	3.08668e-5
281.882	194.730	0.690821	10.0001	2983.37	535.664	68.07	28.5844	2.57266e-5
266.755	192.238	0.720653	10.0001	2897.36	542.373	68.28	29.7528	2.58164e-5
251.896	189.554	0.752509	10.0001	2803.85	549.383	68.51	30.9715	2.58448e-5
236.159	186.046	0.787799	10.0001	2710.26	556.138	68.73	32.2995	2.59651e-5
222.665	183.131	0.822451	10.0001	2607.93	562.348	68.96	33.5524	2.58553e-5
208.887	179.614	0.859860	10.0001	2519.91	569.128	69.14	34.8753	2.59391e-5
195.893	176.012	0.898511	10.0001	2427.08	576.063	69.38	36.1984	2.59393e-5
182.427	171.648	0.940913	10.0001	2337.44	582.798	69.63	37.6125	2.60556e-5
169.421	166.785	0.984439	10.0001	2240.65	589.584	69.88	39.0253	2.61155e-5
157.471	161.975	1.02860	10.0001	2143.17	596.258	70.07	40.4036	2.61008e-5
145.307	157.291	1.08247	10.0001	2051.15	603.097	70.31	41.9819	2.61599e-5
134.127	152.039	1.13355	10.0001	1958.40	609.834	70.51	43.4376	2.62003e-5
123.725	146.784	1.18637	10.0001	1866.88	616.439	70.75	44.8745	2.62094e-5
113.682	141.385	1.24369	10.0001	1778.97	623.234	70.96	46.3551	2.62636e-5
104.400	135.966	1.30236	10.0001	1691.64	629.444	71.15	47.7973	2.62778e-5
95.5083	130.205	1.36328	10.0001	1607.53	636.138	71.40	49.2285	2.63609e-5
87.9224	125.178	1.42373	10.0001	1523.00	642.407	71.62	50.5595	2.62362e-5
79.5587	119.253	1.49892	10.0001	1449.37	649.230	71.82	52.1188	2.65014e-5
71.7015	113.257	1.57956	10.0001	1365.44	656.101	72.08	53.6806	2.65657e-5
64.4434	107.250	1.66426	10.0001	1283.10	663.016	72.26	55.2116	2.66180e-5
57.7679	101.283	1.75327	10.0001	1203.18	669.772	72.53	56.7091	2.66693e-5
51.7778	95.5385	1.84516	10.0001	1126.03	676.386	72.74	58.1430	2.66750e-5
46.0833	89.8503	1.94974	10.0001	1053.46	683.277	73.00	59.6372	2.67557e-5
40.9135	84.3394	2.06141	10.0001	982.481	690.083	73.20	61.0991	2.67893e-5
36.3362	79.0948	2.17675	10.0001	915.066	696.856	73.42	62.4830	2.67872e-5
32.3680	74.1541	2.29097	10.0001	852.125	703.676	73.67	63.7474	2.67654e-5
28.8256	69.6295	2.41554	10.0001	794.226	710.577	73.87	64.9976	2.67219e-5
25.3795	64.9498	2.55914	10.0001	741.238	717.304	74.15	66.3073	2.68881e-5
22.3837	60.4916	2.70248	10.0001	687.236	724.183	74.31	67.5026	2.69004e-5
19.6954	56.2401	2.85549	10.0001	636.772	731.075	74.59	68.6594	2.69284e-5
16.9411	51.6987	3.05167	10.0001	588.965	738.583	74.82	69.9789	2.72313e-5
14.9849	48.2064	3.21700	10.0001	538.860	745.394	75.03	70.9802	2.68158e-5
13.2627	44.9736	3.39099	10.0001	500.556	752.152	75.23	71.9339	2.67870e-5
11.7427	41.9673	3.57389	10.0001	465.330	758.916	75.53	72.8416	2.67648e-5
10.2515	38.9037	3.79493	10.0001	432.634	765.681	75.71	73.8226	2.69282e-5
8.93890	35.8949	4.01558	10.0001	399.378	772.582	75.98	74.7109	2.70109e-5
7.77656	33.1245	4.25953	10.0001	367.342	779.430	76.15	75.5845	2.69898e-5
6.53662	30.0186	4.59237	10.0001	337.385	787.381	76.43	76.6261	2.74307e-5
5.63179	27.4999	4.88297	10.0001	304.778	794.075	76.68	77.4299	2.71036e-5
4.83868	25.2804	5.22465	10.0001	278.552	800.987	76.88	78.2507	2.70018e-5
4.18859	23.2759	5.55698	10.0001	255.248	807.837	77.11	78.9593	2.69172e-5
3.67272	21.5305	5.86227	10.0001	234.434	813.944	77.36	79.5455	2.67587e-5
3.17855	19.8077	6.23166	10.0001	216.136	820.568	77.54	80.1741	2.68521e-5
2.74408	18.1403	6.61071	10.0001	198.033	827.387	77.83	80.7518	2.68934e-5
2.37374	16.6845	7.02878	10.0001	180.991	833.966	77.96	81.3117	2.67517e-5
2.08541	15.4740	7.42015	10.0001	166.267	840.291	78.20	81.7799	2.65206e-5
1.80937	14.2281	7.86357	10.0001	153.428	847.100	78.43	82.2559	2.66344e-5
1.55891	13.1160	8.41362	10.0001	140.992	854.047	78.67	82.7684	2.65740e-5
1.35313	12.0442	8.90095	10.0001	129.521	860.801	78.87	83.1785	2.66014e-5
1.17692	11.0694	9.40540	10.0001	118.769	867.625	79.14	83.5584	2.65554e-5
1.03400	10.2655	9.92792	10.0001	109.325	873.810	79.32	83.9080	2.63714e-5
0.897739	9.44047	10.5158	10.0001	100.969	880.728	79.56	84.2613	2.64959e-5
0.767502	8.64979	11.2700	10.0001	92.6418	887.529	79.80	84.6557	2.65442e-5
0.670762	7.97538	11.8900	10.0001	84.9023	894.371	80.00	84.9476	2.63950e-5
0.592476	7.36279	12.4272	10.0001	78.2021	901.208	80.21	85.1811	2.63407e-5
0.513973	6.78872	13.2083	10.0001	72.1131	907.999	80.46	85.4778	2.63524e-5
0.450364	6.30564	14.0012	10.0001	66.6063	914.870	80.68	85.7444	2.62109e-5
0.407712	5.89942	14.4696	10.0001	61.9411	921.619	80.97	85.8954	2.60572e-5
0.354777	5.42373	15.2877	10.0001	57.5232	928.315	81.12	86.1298	2.63280e-5
0.308802	4.98016	16.1273	10.0001	52.7955	935.113	81.35	86.3469	2.63204e-5
0.263227	4.55180	17.2923	10.0001	48.3463	942.016	81.59	86.6086	2.63756e-5
0.225192	4.16479	18.4944	10.0001	44.1510	948.799	81.81	86.8456	2.63307e-5
0.195713	3.81462	19.4909	10.0001	40.3572	955.686	82.08	87.0251	2.62802e-5
0.171746	3.49038	20.3229	10.0001	36.8969	962.475	82.31	87.1667	2.62631e-5
0.151061	3.21533	21.2850	10.0001	33.8425	969.331	82.51	87.3136	2.61507e-5
0.128777	2.95735	22.9649	10.0001	31.1451	976.179	82.73	87.5303	2.61694e-5
0.112049	2.71820	24.2589	10.0001	28.5998	982.996	82.95	87.6836	2.61481e-5
0.100091	2.50137	24.9910	10.0001	26.2697	989.839	83.21	87.7732	2.61006e-5
0.0884899	2.31952	26.2122	10.0001	24.2586	996.627	83.39	87.8989	2.59929e-5
0.0760919	2.13935	28.1153	10.0001	22.4258	1003.50	83.63	88.0676	2.60556e-5
0.0661690	1.96236	29.6568	10.0001	20.6054	1010.28	83.90	88.1965	2.61013e-5
0.0585010	1.79980	30.7653	10.0001	18.8802	1017.27	84.11	88.2901	2.60772e-5
0.0524055	1.66381	31.7488	10.0001	17.3766	1024.03	84.36	88.3706	2.59651e-5
0.0452578	1.55394	34.3354	10.0001	16.1567	1030.79	84.58	88.5272	2.58484e-5
0.0400024	1.43772	35.9410	10.0001	14.9977	1037.61	84.79	88.6264	2.59351e-5
0.0360463	1.32550	36.7722	10.0001	13.8379	1044.51	85.00	88.6897	2.59553e-5
0.0318182	1.21640	38.2297	10.0001	12.7210	1051.34	85.25	88.7797	2.60016e-5
0.0266347	1.11791	41.9721	10.0001	11.6840	1058.05	85.45	88.9453	2.59888e-5
0.0241073	1.03315	42.8564	10.0001	10.7590	1064.99	85.72	89.0054	2.58936e-5
0.0218300	0.955965	43.7913	10.0001	9.94458	1071.81	85.90	89.0675	2.58671e-5
0.0192767	0.889238	46.1303	10.0001	9.23092	1078.57	86.19	89.1671	2.58101e-5
0.0173949	0.833474	47.9147	10.0001	8.61987	1085.28	86.39	89.2450	2.57160e-5
0.0145724	0.769634	52.8144	10.0001	8.01090	1091.99	86.62	89.3974	2.58830e-5
0.0130341	0.708604	54.3654	10.0001	7.37597	1098.92	86.80	89.4746	2.58856e-5
0.0119608	0.655559	54.8088	10.0001	6.80754	1105.80	87.03	89.5299	2.58238e-5
0.0105790	0.604880	57.1777	10.0001	6.28736	1112.63	87.32	89.6253	2.58496e-5
8.96248e-3	0.559680	62.4470	10.0001	5.81181	1119.41	87.54	89.7639	2.58220e-5
7.50523e-3	0.519123	69.1681	10.0001	5.38420	1126.34	87.71	89.9095	2.57924e-5
7.18877e-3	0.480593	66.8532	10.0001	4.98278	1133.07	87.97	89.9429	2.57838e-5
6.40320e-3	0.446909	69.7947	10.0001	4.62613	1139.96	88.19	90.0419	2.57425e-5
5.48202e-3	0.421682	76.9210	10.0001	4.34145	1146.21	88.44	90.1715	2.56030e-5
5.18238e-3	0.393580	75.9458	10.0001	4.06546	1152.88	88.60	90.2295	2.56882e-5
4.51056e-3	0.364827	80.8829	10.0001	3.77942	1159.60	88.85	90.3553	2.57626e-5
3.72740e-3	0.338678	90.8617	10.0001	3.50741	1165.83	89.11	90.5172	2.57519e-5
3.51151e-3	0.312640	89.0328	10.0001	3.24165	1172.67	89.27	90.6019	2.57844e-5
3.02799e-3	0.292521	96.6057	10.0001	3.01884	1179.43	89.52	90.7394	2.56611e-5
2.54268e-3	0.272296	107.090	10.0001	2.81508	1186.18	89.70	90.8981	2.57080e-5
2.49639e-3	0.254558	101.970	10.0001	2.62537	1192.97	89.96	90.9723	2.56436e-5
2.07716e-3	0.236523	113.868	10.0001	2.44642	1199.78	90.15	91.1495	2.57178e-5
1.67493e-3	0.218813	130.641	10.0001	2.26693	1206.59	90.44	91.3490	2.57563e-5
1.74229e-3	0.203550	116.829	10.0001	2.10212	1213.51	90.63	91.4325	2.56765e-5
1.54211e-3	0.190228	123.356	10.0001	1.96280	1220.32	90.90	91.5938	2.56489e-5
1.22182e-3	0.176583	144.524	10.0001	1.82724	1227.24	91.11	91.8217	2.57186e-5
1.20693e-3	0.164444	136.250	10.0001	1.69834	1234.10	91.35	91.9623	2.56683e-5
1.06159e-3	0.154040	145.103	10.0001	1.58762	1240.88	91.60	92.1494	2.56110e-5
9.31576e-4	0.145015	155.666	10.0001	1.49219	1247.73	91.79	92.3351	2.55672e-5
7.99060e-4	0.135248	169.259	10.0001	1.39699	1254.58	92.00	92.5602	2.56599e-5
6.17148e-4	0.125533	203.408	10.0001	1.29917	1261.29	92.22	92.8417	2.57048e-5
6.84257e-4	0.116702	170.553	10.0001	1.20610	1268.25	92.47	93.0242	2.56651e-5
6.55890e-4	0.108988	166.168	10.0001	1.12519	1274.98	92.74	93.2531	2.56314e-5
4.46085e-4	0.101680	227.939	10.0001	1.05123	1281.80	92.94	93.6050	2.56601e-5
4.44336e-4	0.0950783	213.978	10.0001	0.981678	1288.75	93.18	93.8556	2.56160e-5
4.28639e-4	0.0889334	207.478	10.0001	0.918297	1295.52	93.39	94.1322	2.56119e-5
3.38706e-4	0.0833165	245.985	10.0001	0.860439	1302.29	93.60	94.4717	2.56056e-5
3.62311e-4	0.0779781	215.224	10.0001	0.805568	1309.16	93.78	94.7595	2.56028e-5
2.93556e-4	0.0727802	247.926	10.0001	0.753259	1316.00	94.05	95.1516	2.56338e-5
3.04562e-4	0.0678174	222.672	10.0001	0.702361	1322.72	94.32	95.5170	2.56331e-5
3.69196e-4	0.0637425	172.652	10.0001	0.658281	1329.34	94.57	95.8106	2.55497e-5
2.14609e-4	0.0597646	278.481	10.0001	0.619184	1336.14	94.74	96.3415	2.56078e-5
1.63472e-4	0.0558625	341.726	10.0001	0.579562	1343.04	94.96	96.8327	2.56185e-5
1.68719e-4	0.0522239	309.531	10.0001	0.542089	1349.80	95.21	97.2973	2.56022e-5
1.93747e-4	0.0491912	253.895	10.0001	0.509688	1356.45	95.41	97.7145	2.55349e-5
2.40228e-4	0.0461282	192.018	10.0001	0.479183	1363.25	95.61	98.1634	2.55720e-5
1.85089e-4	0.0432228	233.524	10.0001	0.450192	1370.12	95.85	98.7751	2.55976e-5
1.60506e-4	0.0405565	252.679	10.0001	0.422708	1376.91	96.06	99.3766	2.55733e-5
1.19921e-4	0.0380709	317.465	10.0001	0.397619	1383.75	96.32	100.036	2.55754e-5
9.27469e-5	0.0362433	390.776	10.0001	0.377255	1390.45	96.53	100.573	2.54462e-5
7.36741e-5	0.0343926	466.821	10.0001	0.359069	1397.14	96.75	101.159	2.54735e-5
1.37305e-4	0.0325759	237.252	10.0001	0.340672	1403.97	96.98	101.657	2.54697e-5
6.96462e-5	0.0306224	439.685	10.0001	0.322491	1410.75	97.21	102.498	2.55669e-5
2.30530e-5	0.0284886	1235.78	10.0001	0.302239	1417.64	97.46	103.490	2.56531e-5
1.26992e-4	0.0266506	209.860	10.0001	0.282710	1424.36	97.73	104.174	2.55755e-5
3.99012e-5	0.0250286	627.266	10.0001	0.266844	1431.25	97.89	105.239	2.55814e-5
1.65501e-4	0.0235323	142.188	10.0001	0.250942	1438.10	98.14	105.876	2.55075e-5
6.01238e-5	0.0222605	370.245	10.0001	0.238796	1444.35	98.36	106.981	2.55123e-5
6.42061e-5	0.0210466	327.797	10.0001	0.226658	1451.25	98.57	107.892	2.54876e-5
6.15953e-5	0.0197706	320.976	10.0001	0.214863	1458.09	98.78	108.972	2.55587e-5
1.28451e-4	0.0185596	144.487	10.0001	0.202782	1464.95	99.05	109.932	2.55442e-5
7.31017e-5	0.0174272	238.396	10.0001	0.192336	1471.77	99.28	111.272	2.55742e-5
1.74989e-4	0.0163236	93.2833	10.0001	0.181097	1478.52	99.52	112.265	2.55309e-5
6.59648e-5	0.0154618	234.395	10.0001	0.173309	1485.42	99.70	113.715	2.55193e-5
-2.05184e-6	0.0146441	-7137.08	10.0001	0.165862	1492.22	99.91	115.102	2.55060e-5
1.43220e-4	0.0137943	96.3154	10.0001	0.157087	1499.02	100.15	115.957	2.54626e-5
1.41044e-4	0.0130584	92.5842	10.0001	0.150280	1505.29	100.40	117.220	2.54478e-5
6.70110e-5	0.0124330	185.537	10.0001	0.144909	1512.03	100.61	118.645	2.54364e-5
9.89385e-5	0.0117595	118.856	10.0001	0.138526	1518.77	100.79	119.892	2.53981e-5
3.33250e-5	0.0111703	335.194	10.0001	0.133760	1525.48	101.03	121.425	2.54107e-5
4.30156e-5	0.0104816	243.669	10.0001	0.128001	1532.30	101.28	123.033	2.54596e-5
9.12728e-5	9.83813e-3	107.788	10.0001	0.121989	1539.14	101.49	124.522	2.54054e-5
2.31623e-5	9.27387e-3	400.387	10.0001	0.117720	1545.84	101.76	126.392	2.54106e-5
5.36034e-5	8.77346e-3	163.673	10.0001	0.113069	1552.66	101.93	127.798	2.53245e-5
1.34647e-4	8.27665e-3	61.4692	10.0001	0.108401	1558.85	102.12	129.090	2.52798e-5
1.93319e-5	7.93406e-3	410.413	10.0001	0.106520	1565.59	102.40	130.762	2.52889e-5
1.86355e-5	7.50100e-3	402.512	10.0001	0.103249	1572.32	102.60	132.362	2.52943e-5
7.64311e-6	7.11476e-3	930.873	10.0001	0.100429	1579.18	102.81	133.920	2.52869e-5
1.03290e-4	6.68327e-3	64.7040	10.0001	0.0964063	1586.04	103.07	135.305	2.52287e-5
1.08506e-4	6.33451e-3	58.3795	10.0001	0.0938984	1592.82	103.24	136.818	2.52252e-5
8.01940e-5	5.90763e-3	73.6666	10.0001	0.0914510	1599.60	103.50	138.929	2.52940e-5
1.16923e-4	5.61019e-3	47.9819	10.0001	0.0887445	1606.47	103.73	140.233	2.51624e-5
8.59489e-5	5.31853e-3	61.8801	10.0001	0.0873308	1613.23	104.02	141.856	2.52193e-5
9.07931e-5	5.08084e-3	55.9606	10.0001	0.0855470	1620.13	104.18	143.103	2.51386e-5
4.25266e-5	4.88565e-3	114.885	10.0001	0.0848498	1626.87	104.44	144.367	2.51609e-5
7.91110e-5	4.60042e-3	58.1514	10.0001	0.0830047	1633.81	104.67	145.840	2.51947e-5
-3.36374e-5	4.35013e-3	-129.324	10.0001	0.0827070	1640.65	104.90	147.740	2.52355e-5
1.12051e-4	4.12716e-3	36.8328	10.0001	0.0796954	1647.42	105.10	148.545	2.50595e-5
8.11757e-5	3.83434e-3	47.2350	10.0001	0.0790037	1654.21	105.37	150.502	2.52309e-5
6.77866e-5	3.57453e-3	52.7320	10.0001	0.0776969	1661.10	105.56	152.238	2.51778e-5
8.95444e-5	3.41206e-3	38.1046	10.0001	0.0764603	1667.87	105.77	153.248	2.50835e-5
8.00236e-5	3.37224e-3	42.1406	10.0001	0.0761235	1674.77	105.99	153.549	2.50037e-5
5.68831e-5	3.15448e-3	55.4554	10.0001	0.0758736	1681.55	106.29	155.119	2.51661e-5
7.15393e-5	3.00874e-3	42.0571	10.0001	0.0748575	1688.44	106.46	156.094	2.50753e-5
4.38741e-5	2.82651e-3	64.4231	10.0001	0.0745554	1695.26	106.67	157.474	2.51311e-5
-6.54464e-6	2.64464e-3	-404.093	10.0001	0.0744314	1701.94	106.91	158.932	2.51597e-5
6.52211e-5	2.57926e-3	39.5465	10.0001	0.0729508	1708.72	107.18	159.209	2.49659e-5
1.69440e-4	2.49529e-3	14.7267	10.0001	0.0716678	1715.46	107.40	159.542	2.49636e-5
1.23521e-4	2.33716e-3	18.9212	10.0001	0.0720144	1722.29	107.61	160.863	2.51208e-5
1.65487e-4	2.16049e-3	13.0553	10.0001	0.0709156	1729.12	107.85	162.111	2.50748e-5
2.22357e-5	2.13254e-3	95.9061	10.0001	0.0721961	1736.03	108.08	162.675	2.50709e-5
3.03759e-5	2.02024e-3	66.5080	10.0001	0.0717070	1742.89	108.34	163.517	2.50424e-5
5.41530e-5	1.90998e-3	35.2700	10.0001	0.0712437	1749.64	108.51	164.321	2.50687e-5
5.76505e-5	1.80729e-3	31.3491	10.0001	0.0709090	1756.47	108.74	165.118	2.50588e-5
4.60413e-5	1.72568e-3	37.4812	10.0001	0.0708527	1763.38	108.96	165.785	2.50719e-5
1.19158e-4	1.67249e-3	14.0359	10.0001	0.0697034	1770.07	109.21	166.062	2.49631e-5
8.71108e-5	1.59235e-3	18.2796	10.0001	0.0700613	1776.96	109.42	166.767	2.50468e-5
9.05057e-5	1.48444e-3	16.4016	10.0001	0.0697576	1783.75	109.64	167.629	2.50362e-5
7.70375e-5	1.45846e-3	18.9318	10.0001	0.0697142	1790.63	109.88	167.863	2.49931e-5
8.73849e-5	1.35704e-3	15.5295	10.0001	0.0695865	1797.43	110.11	168.667	2.50584e-5
8.01118e-5	1.32714e-3	16.5660	10.0001	0.0694824	1804.32	110.18	168.922	2.50161e-5

[step]
Flow sweep - 5
Stress	Shear rate	Viscosity	Step time	Temperature	Normal stress
MPa	1/s	Pa.s	s	°C	MPa
1.04620e-6	0.0999982	10.4621	34.9284	150.00	1.69543e-3
-2.37969e-7	0.125887	-1.89035	70.0351	150.00	1.61813e-3
1.69732e-7	0.158492	1.07092	105.154	149.99	1.58171e-3
-3.54700e-7	0.199524	-1.77773	140.250	150.00	1.52679e-3
4.91570e-7	0.251185	1.95700	175.294	150.01	1.47947e-3
1.19012e-7	0.316226	0.376351	210.337	150.00	1.41145e-3
2.89363e-7	0.398103	0.726853	245.404	150.00	1.37284e-3
1.33679e-7	0.501191	0.266723	280.516	150.00	1.32228e-3
4.30392e-7	0.630959	0.682123	315.488	150.00	1.28595e-3
5.05220e-7	0.794327	0.636036	350.565	150.00	1.24352e-3
6.91571e-7	1.00000	0.691568	385.656	150.01	1.18831e-3
6.85591e-7	1.25893	0.544583	420.715	150.00	1.15295e-3
1.03156e-6	1.58490	0.650870	455.743	150.00	1.12041e-3
1.25278e-6	1.99526	0.627877	490.875	150.00	1.09571e-3
1.64025e-6	2.51188	0.652996	525.986	150.01	1.03130e-3
2.02282e-6	3.16233	0.639662	561.003	150.00	1.01438e-3
2.60930e-6	3.98106	0.655428	596.059	150.00	9.88556e-4
3.25244e-6	5.01184	0.648951	631.149	150.00	9.70898e-4
4.10557e-6	6.30956	0.650691	666.244	150.00	9.31933e-4
5.12948e-6	7.94327	0.645765	701.252	150.00	9.05522e-4
6.44053e-6	9.99997	0.644055	736.291	150.00	8.81544e-4
8.07713e-6	12.5892	0.641592	771.406	150.00	8.72838e-4
1.01222e-5	15.8489	0.638665	806.395	150.00	8.53497e-4
1.28449e-5	19.9526	0.643771	841.522	150.00	8.29534e-4
1.61317e-5	25.1187	0.642219	876.607	150.00	8.22659e-4
2.02861e-5	31.6226	0.641506	911.680	150.00	7.96771e-4
2.57193e-5	39.8106	0.646043	946.664	149.99	7.82191e-4
3.23968e-5	50.1184	0.646405	981.755	150.00	7.36027e-4
4.06582e-5	63.0955	0.644391	1016.88	150.00	7.32153e-4
5.07014e-5	79.4326	0.638295	1051.93	150.00	7.19670e-4
6.39134e-5	99.9995	0.639138	1086.96	150.00	7.01979e-4

[step]
Flow sweep - 6
Stress	Shear rate	Viscosity	Step time	Temperature	Normal stress
MPa	1/s	Pa.s	s	°C	MPa
1.15561e-6	0.100004	11.5557	34.9854	130.00	-1.92891e-4
1.25560e-7	0.125898	0.997321	70.0302	130.00	-2.16334e-4
6.52345e-7	0.158493	4.11591	105.116	130.00	-2.18109e-4
1.63447e-6	0.199537	8.19132	140.199	130.00	-2.43065e-4
1.56535e-6	0.251206	6.23133	175.259	130.00	-2.39945e-4
1.49644e-6	0.316241	4.73198	210.301	130.00	-2.42876e-4
2.39167e-6	0.398134	6.00720	245.406	129.99	-2.67957e-4
2.74321e-6	0.501203	5.47326	280.499	130.01	-2.72015e-4
3.52157e-6	0.630975	5.58116	315.550	130.00	-2.80753e-4
4.31874e-6	0.794358	5.43677	350.611	129.99	-2.95066e-4
5.47068e-6	1.00004	5.47048	385.637	130.01	-2.96193e-4
6.98579e-6	1.25897	5.54881	420.740	130.00	-2.96122e-4
8.72801e-6	1.58496	5.50675	455.729	129.99	-2.78663e-4
1.10184e-5	1.99534	5.52207	490.828	130.00	-2.71860e-4
1.37626e-5	2.51198	5.47879	525.931	130.00	-2.66850e-4
1.72886e-5	3.16240	5.46693	560.954	129.99	-2.96381e-4
2.18055e-5	3.98123	5.47708	596.028	130.00	-2.99396e-4
2.76752e-5	5.01209	5.52168	631.044	130.01	-3.05018e-4
3.47006e-5	6.30978	5.49950	666.161	130.00	-3.19400e-4
4.38136e-5	7.94358	5.51560	701.169	130.00	-2.95764e-4
5.53601e-5	10.0004	5.53580	736.230	130.00	-3.12901e-4
6.98635e-5	12.5898	5.54924	771.365	130.00	-3.06018e-4
8.76838e-5	15.8496	5.53226	806.501	129.99	-3.11426e-4
1.12061e-4	19.9534	5.61615	841.530	130.01	-3.04992e-4
1.41183e-4	25.1198	5.62041	876.593	130.00	-2.82332e-4
1.76654e-4	31.6240	5.58608	911.666	130.00	-2.99166e-4
2.21494e-4	39.8122	5.56348	946.765	130.00	-3.02561e-4
2.79210e-4	50.1205	5.57077	981.767	130.00	-2.99789e-4
3.50507e-4	63.0981	5.55495	1016.82	129.99	-2.91617e-4
4.39571e-4	79.4356	5.53368	1051.94	130.00	-2.97230e-4
5.49163e-4	100.004	5.49143	1086.93	130.01	-2.96112e-4

[step]
Flow sweep - 7
Stress	Shear rate	Viscosity	Step time	Temperature	Normal stress
MPa	1/s	Pa.s	s	°C	MPa
1.74310e-5	0.100003	174.306	34.9983	110.00	-9.73558e-4
2.04894e-5	0.125895	162.750	69.9965	110.00	-1.01112e-3
2.63460e-5	0.158494	166.227	105.109	110.00	-1.01177e-3
3.31672e-5	0.199530	166.226	140.185	109.99	-1.02328e-3
4.26123e-5	0.251198	169.637	175.236	110.00	-1.01235e-3
5.32657e-5	0.316237	168.436	210.351	110.00	-1.03529e-3
6.78394e-5	0.398114	170.402	245.449	109.99	-1.01108e-3
8.45628e-5	0.501198	168.721	280.560	110.00	-1.02946e-3
1.07005e-4	0.630972	169.587	315.610	110.00	-1.03960e-3
1.35792e-4	0.794342	170.949	350.666	109.99	-1.03018e-3
1.70331e-4	1.00002	170.328	385.756	110.00	-1.01327e-3
2.15425e-4	1.25895	171.115	420.911	110.01	-9.95784e-4
2.70747e-4	1.58492	170.827	455.965	110.00	-9.95503e-4
3.43842e-4	1.99530	172.326	491.021	110.00	-9.81675e-4
4.34444e-4	2.51193	172.952	526.108	110.00	-9.71232e-4
5.48518e-4	3.16235	173.452	561.207	110.00	-9.71919e-4
6.96700e-4	3.98115	175.000	596.153	109.99	-9.65064e-4
8.75648e-4	5.01194	174.712	631.250	110.00	-9.52679e-4
1.08352e-3	6.30970	171.723	666.328	110.00	-9.42528e-4
1.35878e-3	7.94344	171.056	701.419	110.00	-9.26877e-4
1.70396e-3	10.0002	170.393	736.433	110.00	-9.13693e-4
2.13478e-3	12.5894	169.569	771.545	110.00	-9.06491e-4
2.68046e-3	15.8492	169.123	806.658	110.00	-8.98501e-4
3.35307e-3	19.9530	168.048	841.693	110.00	-8.95459e-4
4.21977e-3	25.1192	167.990	876.766	110.00	-8.86468e-4
5.34541e-3	31.6234	169.033	911.875	109.99	-8.70065e-4
6.68215e-3	39.8115	167.845	946.953	110.01	-8.47682e-4
8.27913e-3	50.1197	165.187	982.014	110.01	-8.51731e-4
0.0101944	63.0971	161.566	1017.07	109.99	-8.36155e-4
0.0123637	79.4344	155.646	1052.18	109.99	-8.29668e-4
0.0146641	100.002	146.638	1087.23	110.00	-8.28313e-4

[step]
Flow sweep - 8
Stress	Shear rate	Viscosity	Step time	Temperature	Normal stress
MPa	1/s	Pa.s	s	°C	MPa
3.05660e-3	0.0999966	30567.1	34.9104	89.99	-1.44511e-3
3.91449e-3	0.125888	31095.0	69.9754	90.00	-1.44173e-3
4.93159e-3	0.158485	31117.2	105.076	90.00	-1.42806e-3
6.23794e-3	0.199519	31264.9	140.125	90.00	-1.39001e-3
7.87314e-3	0.251180	31344.6	175.142	90.00	-1.41767e-3
9.95643e-3	0.316214	31486.4	210.256	90.00	-1.37525e-3
0.0125696	0.398092	31574.5	245.313	90.00	-1.33314e-3
0.0160310	0.501169	31987.2	280.315	90.00	-1.30098e-3
0.0201355	0.630931	31913.9	315.357	90.00	-1.20512e-3
0.0252648	0.794298	31807.7	350.457	89.99	-1.21416e-3
0.0320364	0.999960	32037.7	385.457	90.00	-1.10780e-3
0.0402654	1.25888	31985.1	420.501	90.00	-9.86664e-4
0.0502630	1.58484	31714.8	455.610	90.00	-7.78479e-4
0.0614068	1.99520	30777.4	490.732	90.00	-5.02788e-4
0.0734606	2.51181	29246.0	525.724	90.00	-1.44004e-4
0.0840924	3.16219	26593.1	560.764	90.00	3.21221e-4
0.0886356	3.98099	22264.7	595.831	90.00	7.40772e-4
0.0880091	5.01174	17560.6	630.894	90.00	9.80236e-4
0.0813116	6.30944	12887.3	665.885	90.01	1.25559e-3
0.0973129	7.94305	12251.3	700.968	89.99	3.72623e-3
0.0837337	9.99996	8373.40	736.085	90.00	2.14028e-3
0.0635448	12.5888	5047.73	771.132	90.00	3.74294e-3
0.0460880	15.8487	2907.99	806.153	90.00	3.05533e-3
0.0268858	19.9522	1347.51	841.203	90.01	2.10243e-3
7.08149e-3	25.1186	281.922	876.294	90.00	-4.49342e-4
1.28579e-3	31.6224	40.6608	911.264	90.00	-8.87732e-4
1.64694e-4	39.8095	4.13704	946.390	90.00	-9.82419e-4
3.66792e-5	50.1168	0.731876	981.464	90.00	-9.89109e-4
9.32260e-6	63.0932	0.147759	1016.55	89.99	-1.00243e-3
7.23460e-6	79.4293	0.0910822	1051.53	90.00	-9.97866e-4
7.74945e-6	99.9962	0.0774975	1086.60	90.01	-9.96164e-4

[step]
Flow sweep - 9
Stress	Shear rate	Viscosity	Step time	Temperature	Normal stress
MPa	1/s	Pa.s	s	°C	MPa
-7.21066e-7	0.0999974	-7.21085	34.9808	69.99	-1.41159e-3
-3.82533e-7	0.125887	-3.03870	69.9982	70.00	-1.40099e-3
1.35093e-7	0.158481	0.852421	105.042	70.00	-1.38693e-3
-4.30787e-7	0.199530	-2.15901	140.153	70.00	-1.38148e-3
-5.34786e-7	0.251194	-2.12898	175.198	70.00	-1.32158e-3
-7.65671e-8	0.316233	-0.242122	210.215	70.01	-1.30507e-3
-3.54116e-7	0.398101	-0.889512	245.283	70.00	-1.30579e-3
-1.67582e-7	0.501172	-0.334380	280.306	70.00	-1.27251e-3
-3.28799e-7	0.630948	-0.521119	315.365	70.00	-1.23264e-3
-3.46208e-7	0.794331	-0.435848	350.462	70.00	-1.21318e-3
-2.78265e-7	0.999983	-0.278269	385.520	69.99	-1.19018e-3
-1.72854e-7	1.25892	-0.137303	420.597	70.00	-1.16442e-3
-2.40038e-7	1.58487	-0.151456	455.690	70.00	-1.15298e-3
-2.39920e-7	1.99527	-0.120244	490.794	70.00	-1.13085e-3
-2.43257e-7	2.51185	-0.0968438	525.796	70.00	-1.08967e-3
-2.14127e-7	3.16227	-0.0677130	560.841	70.00	-1.06756e-3
-2.33307e-7	3.98103	-0.0586048	595.979	70.00	-1.05058e-3
-2.04423e-7	5.01179	-0.0407883	631.092	70.00	-1.02525e-3
-1.98756e-7	6.30944	-0.0315013	666.153	70.01	-1.00600e-3
-1.78280e-7	7.94318	-0.0224445	701.182	70.00	-9.85201e-4
-1.28013e-7	9.99990	-0.0128015	736.283	70.00	-9.66486e-4
-9.25567e-8	12.5891	-7.35212e-3	771.369	70.00	-9.43980e-4
-4.21794e-8	15.8488	-2.66137e-3	806.412	70.00	-9.30425e-4
1.19139e-8	19.9524	5.97118e-4	841.537	70.00	-8.99032e-4
9.26616e-8	25.1186	3.68896e-3	876.620	70.00	-8.91476e-4
1.98411e-7	31.6224	6.27437e-3	911.745	70.01	-8.65834e-4
3.66224e-7	39.8103	9.19923e-3	946.792	70.00	-8.55084e-4
6.16026e-7	50.1181	0.0122915	981.822	69.99	-8.31984e-4
9.63254e-7	63.0949	0.0152668	1016.92	70.00	-8.18594e-4
1.48357e-6	79.4320	0.0186773	1051.96	70.00	-8.09980e-4
2.33173e-6	99.9989	0.0233175	1086.99	70.00	-7.98955e-4

[step]
Flow sweep - 10
Stress	Shear rate	Viscosity	Step time	Temperature	Normal stress
MPa	1/s	Pa.s	s	°C	MPa
-5.38194e-7	0.0999938	-5.38228	34.9915	60.00	-8.85866e-4
-6.18731e-7	0.125890	-4.91487	70.0758	59.99	-8.58293e-4
1.72563e-7	0.158487	1.08881	105.141	60.00	-8.53095e-4
5.88504e-8	0.199512	0.294972	140.268	60.00	-8.37511e-4
-7.60538e-7	0.251181	-3.02785	175.288	59.99	-8.05654e-4
-1.88847e-7	0.316210	-0.597221	210.302	60.00	-7.90670e-4
-5.16640e-7	0.398093	-1.29779	245.365	60.00	-7.83204e-4
-9.08091e-8	0.501168	-0.181195	280.483	60.00	-7.65076e-4
-2.90394e-7	0.630932	-0.460262	315.453	60.00	-7.52378e-4
-3.26072e-7	0.794295	-0.410517	350.529	60.00	-7.44452e-4
-3.79285e-7	0.999958	-0.379301	385.694	60.00	-7.25854e-4
-3.58530e-7	1.25888	-0.284800	420.734	60.00	-7.07064e-4
-3.20615e-7	1.58484	-0.202301	455.820	60.00	-6.88313e-4
-3.18556e-7	1.99518	-0.159663	490.932	60.00	-6.81639e-4
-3.09377e-7	2.51179	-0.123170	526.049	59.99	-6.51404e-4
-2.72577e-7	3.16210	-0.0862012	561.091	60.00	-6.41571e-4
-3.02158e-7	3.98088	-0.0759023	596.196	60.00	-6.33814e-4
-2.86715e-7	5.01168	-0.0572093	631.321	60.00	-6.32142e-4
-2.89985e-7	6.30925	-0.0459619	666.437	60.01	-6.14505e-4
-2.63616e-7	7.94293	-0.0331888	701.460	60.00	-6.01339e-4
-2.35420e-7	9.99953	-0.0235431	736.495	60.00	-5.95686e-4
-2.17289e-7	12.5886	-0.0172608	771.577	60.00	-5.71446e-4
-1.89257e-7	15.8482	-0.0119418	806.679	60.00	-5.51776e-4
-1.47153e-7	19.9517	-7.37544e-3	841.687	60.00	-5.53176e-4
-9.07227e-8	25.1178	-3.61189e-3	876.778	60.00	-5.33401e-4
-3.26090e-8	31.6213	-1.03123e-3	911.877	60.00	-5.23227e-4
8.77848e-8	39.8089	2.20516e-3	946.847	59.99	-5.21250e-4
2.77164e-7	50.1163	5.53042e-3	981.918	60.00	-5.05568e-4
5.48897e-7	63.0930	8.69980e-3	1017.04	60.00	-5.00075e-4
9.97862e-7	79.4290	0.0125629	1052.15	60.00	-4.78964e-4
1.72341e-6	99.9950	0.0172350	1087.22	60.00	-4.80036e-4

[step]
Axial - 11
Step time	Temperature	Normal stress	Axial force	Gap
s	°C	MPa	N	µm
1.03105	150.03	2.31083e-3	0.0580776	4638.70
2.04644	150.06	2.50563e-3	0.0629733	13681.0
3.04636	150.00	2.50865e-3	0.0630492	23681.0
4.04620	150.02	2.49052e-3	0.0625937	33481.1

